Data from WindowProjectSample_Transmission__0__00000__09224399113246113.txt Node

Date: Mon May 05 16:11:39 EDT 2025
User: jessi
Spectrometer: SR400872
Trigger mode: 0
Integration Time (sec): 1.000100E-2
Scans to average: 20
Electric dark correction enabled: true
Nonlinearity correction enabled: true
Boxcar width: 0
XAxis mode: Wavelengths
Number of Pixels in Spectrum: 3648
>>>>>Begin Spectral Data<<<<<
184.909	-51.66624
185.132	188.28645
185.355	134.01447
185.578	263.3533
185.801	-351.83277
186.024	30.52121
186.247	-122.79206
186.47	-115.5061
186.693	108.88362
186.916	-35.02761
187.139	25.0994
187.362	17.00418
187.585	-78.39925
187.808	-227.72689
188.031	79.3832
188.254	2860.7593
188.476	73.3426
188.699	41.0871
188.922	-36.80592
189.145	16.92828
189.368	134.94184
189.591	145.2779
189.813	127.37489
190.036	2574.84831
190.259	37.62552
190.482	220.07553
190.705	2.25139
190.927	-37.07868
191.15	-61.11883
191.373	168.74585
191.595	144.35407
191.818	83.28404
192.041	-449.50996
192.263	-57.64744
192.486	136.59227
192.709	6.24916
192.931	118.10599
193.154	-550.60938
193.377	82.06531
193.599	-30.87837
193.822	580.92284
194.044	1.19563
194.267	-1.84885
194.489	141.65005
194.712	1067.97564
194.934	398.73825
195.157	113.44746
195.379	121.90555
195.602	-338.52628
195.824	134.06186
196.047	54.94934
196.269	0.36647
196.492	469.25946
196.714	620.1532
196.936	-183.69483
197.159	104.60118
197.381	46.14618
197.604	-98.15825
197.826	-334.6399
198.048	620.8366
198.271	75.97051
198.493	-38.62166
198.715	104.04626
198.938	68.11276
199.16	256.86149
199.382	1258.57087
199.604	7.81245
199.827	30.63707
200.049	14.45272
200.271	-549.27704
200.493	20.24242
200.715	-245.61213
200.938	174.21426
201.16	104.84601
201.382	839.0041
201.604	32.6788
201.826	127.53586
202.048	143.2755
202.27	25.05233
202.492	1635.876
202.715	-18.95168
202.937	136.9318
203.159	-41.66971
203.381	18.11634
203.603	7.34474
203.825	475.22797
204.047	-135.33386
204.269	89.01572
204.491	-35.42188
204.713	59.48976
204.935	26381.31713
205.156	78.43781
205.378	63.80901
205.6	44.31829
205.822	-828.21459
206.044	-114.53225
206.266	72.58548
206.488	-28.87373
206.71	7.48479
206.932	31.93322
207.153	81.26361
207.375	346.01167
207.597	665.59581
207.819	243.74966
208.041	34.14592
208.262	58.13871
208.484	61.52905
208.706	82.80234
208.927	23.39869
209.149	55.09861
209.371	118.01598
209.593	39.21464
209.814	90.95648
210.036	-52.01909
210.258	36.36552
210.479	156.66657
210.701	-52.90243
210.922	-242.56278
211.144	531.49676
211.366	6.54667
211.587	-565.19001
211.809	18.20755
212.03	0.98598
212.252	42.17217
212.473	27.88131
212.695	588.75694
212.916	171.34116
213.138	-19.47361
213.359	-79.48907
213.581	69.44108
213.802	154.73022
214.024	86.33814
214.245	-136.65279
214.466	-160.35431
214.688	351.55345
214.909	74.64895
215.131	21.22711
215.352	100.54969
215.573	-167.82659
215.795	166.20432
216.016	-142.2807
216.237	11.62441
216.459	-35.68336
216.68	49.01338
216.901	-240.73526
217.122	200.06255
217.344	214.38485
217.565	51.45943
217.786	-79.50244
218.007	-832.15365
218.228	293.03642
218.45	-135.85573
218.671	-5.38711
218.892	-41.60885
219.113	112.91411
219.334	116.44565
219.555	-140.73889
219.776	39.14554
219.997	-591.7068
220.219	175.908
220.44	815.2699
220.661	54.94847
220.882	-23.18803
221.103	172.48904
221.324	-66.1445
221.545	-106.93663
221.766	41.9996
221.987	-85.37697
222.208	-54.0283
222.429	-122.63989
222.65	-123.32522
222.87	-797.34516
223.091	4.3311
223.312	19.19833
223.533	85.74424
223.754	17.40285
223.975	-20.8673
224.196	-150.83033
224.417	-39.89459
224.637	-28.63002
224.858	14.20867
225.079	36.03087
225.3	47.80217
225.521	-26.56871
225.741	-8.12551
225.962	17.84436
226.183	6.91887
226.404	19.1769
226.624	5.84166
226.845	-16.97203
227.066	-14.77959
227.286	-1.03676
227.507	2.36596
227.728	0.38652
227.948	-7.32719
228.169	2.68079
228.389	-5.93246
228.61	-3.03323
228.831	-3.44128
229.051	-2.08406
229.272	-1.02496
229.492	0.10467
229.713	-1.51848
229.933	0.28579
230.154	-0.33559
230.374	0.37399
230.595	-1.12964
230.815	1.37784
231.036	0.31561
231.256	-0.61795
231.477	1.32982
231.697	-2.36957
231.917	0.60949
232.138	-3.14996
232.358	-0.11341
232.579	-7.49113
232.799	4.44022
233.019	-4.13725
233.24	4.77953
233.46	1.1987
233.68	0.89046
233.901	-1.76341
234.121	-5.99724
234.341	-0.02502
234.561	1.00246
234.782	1.07146
235.002	-0.52646
235.222	0.26777
235.442	-0.0733
235.662	-0.4082
235.883	3.50671
236.103	3.49265
236.323	-1.59245
236.543	0.65367
236.763	-1.19797
236.983	-1.79805
237.203	0.49477
237.423	-1.70105
237.643	-0.61461
237.864	-4.98144
238.084	-1.63328
238.304	0.15641
238.524	-3.93815
238.744	-0.77519
238.964	-1.81105
239.184	-3.75524
239.404	-4.05132
239.624	-0.3935
239.843	-0.09477
240.063	0.96606
240.283	-0.84494
240.503	-0.59296
240.723	1.03917
240.943	-0.75786
241.163	0.28228
241.383	0.40482
241.603	0.04495
241.822	0.66218
242.042	-0.51362
242.262	-0.36106
242.482	0.17118
242.702	-0.44356
242.921	-0.32137
243.141	-0.43596
243.361	-0.08914
243.581	-0.32766
243.8	-0.61164
244.02	0.22144
244.24	0.40126
244.459	0.81046
244.679	-0.08467
244.899	-1.12998
245.118	-0.90338
245.338	-0.35998
245.558	-0.28712
245.777	-0.22541
245.997	-0.12945
246.216	-0.91965
246.436	-0.00148
246.655	0.22766
246.875	0.03179
247.094	-0.17901
247.314	0.09994
247.533	-0.04104
247.753	-0.16239
247.972	-0.12085
248.192	-0.25605
248.411	-0.08612
248.631	0.00887
248.85	-0.06424
249.07	-0.12448
249.289	-0.1356
249.508	0.26322
249.728	-0.5451
249.947	-0.21235
250.166	0.12591
250.386	0.00825
250.605	0.22588
250.824	0.11533
251.044	-0.45834
251.263	-0.43716
251.482	0.92956
251.701	0.03263
251.921	-0.35469
252.14	0.00006
252.359	-0.1898
252.578	0.20057
252.798	-0.22581
253.017	0.18042
253.236	0.03336
253.455	-0.07329
253.674	-0.57862
253.893	0.06659
254.112	0.10692
254.331	1.29171
254.551	0.14087
254.77	-0.47189
254.989	-0.97052
255.208	-0.5783
255.427	0.1225
255.646	-1.3786
255.865	-0.15619
256.084	-0.07394
256.303	0.2202
256.522	0.06104
256.741	-0.37697
256.96	-0.01056
257.179	-0.06049
257.397	-0.66889
257.616	-0.00767
257.835	-0.31735
258.054	0.57437
258.273	0.2726
258.492	0.00393
258.711	-0.17878
258.93	0.24345
259.148	-0.00309
259.367	-0.03495
259.586	-0.04382
259.805	0.0061
260.023	-0.1764
260.242	-0.11261
260.461	0.15509
260.68	-0.17902
260.898	-0.03916
261.117	-0.06488
261.336	0.05905
261.554	0.02523
261.773	-0.00408
261.992	-0.09555
262.21	-0.18683
262.429	-0.22399
262.648	0.56707
262.866	-0.26438
263.085	-0.01321
263.303	0.1347
263.522	-0.03201
263.74	-0.06157
263.959	0.04332
264.178	-0.55257
264.396	0.09496
264.615	0.24016
264.833	-0.87867
265.051	-0.14331
265.27	0.01273
265.488	-0.1894
265.707	-0.01409
265.925	-0.08311
266.144	-0.2981
266.362	-0.03351
266.58	-0.49207
266.799	0.09433
267.017	0.12609
267.235	-0.05415
267.454	0.01115
267.672	-0.10516
267.89	-0.0476
268.109	0.04551
268.327	-0.06392
268.545	0.00201
268.763	-0.15836
268.982	-0.30222
269.2	-0.31724
269.418	0.1767
269.636	-0.30595
269.854	0.01699
270.073	0.01815
270.291	0.33882
270.509	-0.06579
270.727	-0.28144
270.945	0.01161
271.163	0.11109
271.381	-0.23241
271.599	0.11865
271.817	0.15003
272.036	0.0434
272.254	-0.10546
272.472	-0.12029
272.69	0.08467
272.908	-0.20254
273.126	0.07762
273.344	-0.20069
273.562	-0.07244
273.779	0.02235
273.997	-0.2386
274.215	-0.1105
274.433	0.01184
274.651	0.02355
274.869	0.01761
275.087	0.02061
275.305	0.19158
275.523	0.02922
275.74	-0.02172
275.958	-0.15996
276.176	-0.07244
276.394	0.15657
276.612	-0.10918
276.829	0.15682
277.047	-0.20621
277.265	0.10214
277.483	-0.07238
277.7	0.30421
277.918	-0.05882
278.136	0.11229
278.353	0.08823
278.571	-0.14374
278.789	-0.16408
279.006	-0.24121
279.224	0.21117
279.442	0.2653
279.659	0.05995
279.877	0.14302
280.094	0.194
280.312	0.13395
280.529	-0.047
280.747	-0.15903
280.964	-0.27816
281.182	-0.19715
281.399	-0.13683
281.617	0.10271
281.834	-0.1171
282.052	0.03414
282.269	0.08551
282.487	-0.01868
282.704	-0.07567
282.921	-0.02122
283.139	0.05127
283.356	-0.10088
283.574	-0.13309
283.791	-0.10574
284.008	0.15294
284.226	-0.02202
284.443	-0.25736
284.66	0.07431
284.877	0.11126
285.095	-0.09608
285.312	0.00123
285.529	-0.15963
285.746	-0.06332
285.964	-0.04724
286.181	0.006
286.398	-0.07085
286.615	0.05775
286.832	0.03196
287.05	-0.08916
287.267	0.0309
287.484	0.04857
287.701	-0.04931
287.918	0.02601
288.135	-0.1678
288.352	-0.01248
288.569	-0.11293
288.786	0.03332
289.003	0.14142
289.22	0.03128
289.437	-0.05046
289.654	-0.01571
289.871	0.01098
290.088	0.0469
290.305	0.12336
290.522	-0.14897
290.739	-0.01821
290.956	0.13155
291.173	-0.04932
291.39	-0.28385
291.607	0.04374
291.824	-0.07627
292.04	0.0674
292.257	0.06645
292.474	-0.02046
292.691	-0.03444
292.908	-0.01151
293.125	0.06089
293.341	-0.01502
293.558	-0.02488
293.775	-0.10654
293.992	-0.00939
294.208	0.04559
294.425	0.03913
294.642	0.04622
294.858	-0.09712
295.075	-0.1574
295.292	0.05124
295.508	0.01613
295.725	-0.02649
295.942	-0.08676
296.158	0.02695
296.375	-0.04792
296.591	-0.07669
296.808	0.08578
297.024	-0.03265
297.241	-0.00928
297.458	-0.04562
297.674	-0.08859
297.891	-0.07635
298.107	-0.01508
298.323	0.05327
298.54	0.01848
298.756	-0.05661
298.973	0.01284
299.189	-0.03811
299.406	0.0645
299.622	-0.05599
299.838	-0.04023
300.055	0.1185
300.271	-0.0468
300.487	0.01419
300.704	0.09249
300.92	-0.08265
301.136	0.018
301.353	-0.2266
301.569	0.00484
301.785	-0.01511
302.001	-0.00391
302.218	-0.09634
302.434	0.07637
302.65	-0.07272
302.866	0.02129
303.083	0.06648
303.299	-0.03453
303.515	0.02081
303.731	-0.07875
303.947	-0.01463
304.163	-0.09924
304.379	-0.1065
304.595	0.04293
304.812	-0.0756
305.028	0.1066
305.244	0.10851
305.46	-0.01315
305.676	0.00755
305.892	-0.09209
306.108	-0.00411
306.324	-0.08935
306.54	0.10607
306.756	0.10746
306.972	-0.00193
307.187	-0.01763
307.403	0.02159
307.619	-0.0351
307.835	0.08654
308.051	0.09136
308.267	0.09473
308.483	0.0763
308.699	-0.02803
308.914	-0.0992
309.13	-0.05771
309.346	0.05724
309.562	-0.04429
309.778	0.01066
309.993	0.09755
310.209	0.13163
310.425	-0.0047
310.641	0.01357
310.856	0.00179
311.072	-0.03523
311.288	-0.07966
311.503	-0.03326
311.719	-0.03952
311.935	-0.11209
312.15	0.0108
312.366	-0.01353
312.581	-0.00856
312.797	0.0012
313.013	0.06696
313.228	-0.04061
313.444	-0.06582
313.659	0.05347
313.875	0.09196
314.09	0.01649
314.306	0.09931
314.521	0.08862
314.737	-0.11826
314.952	0.01613
315.168	-0.04015
315.383	-0.05587
315.599	0.03106
315.814	0.06891
316.029	-0.07328
316.245	-0.05655
316.46	0.07892
316.675	-0.00896
316.891	-0.14312
317.106	-0.01242
317.321	-0.21999
317.537	0.14963
317.752	0.01485
317.967	0.20006
318.183	-0.089
318.398	-0.02156
318.613	-0.05154
318.828	-0.00834
319.043	-0.13156
319.259	0.10236
319.474	-0.1547
319.689	0.05629
319.904	-0.07657
320.119	-0.03627
320.334	0.1786
320.549	-0.06347
320.765	-0.0661
320.98	-0.03535
321.195	-0.00478
321.41	0.09476
321.625	-0.0199
321.84	-0.05951
322.055	0.15866
322.27	0.07846
322.485	-0.09731
322.7	-0.06592
322.915	-0.19638
323.13	0.07788
323.345	-0.15175
323.56	0.05776
323.775	-0.05833
323.989	-0.11761
324.204	-0.07299
324.419	-0.11853
324.634	0.08119
324.849	0.00807
325.064	-0.06456
325.279	0.02981
325.493	0.00752
325.708	-0.06648
325.923	0.0267
326.138	0.04526
326.352	-0.06377
326.567	0.02742
326.782	0.05893
326.997	0.11603
327.211	-0.00983
327.426	0.07911
327.641	-0.06835
327.855	-0.05213
328.07	0.01758
328.285	0.08714
328.499	-0.10659
328.714	-0.05214
328.928	-0.0436
329.143	-0.19026
329.358	0.00323
329.572	-0.10105
329.787	0.05912
330.001	0.05486
330.216	0.11201
330.43	0.02758
330.645	0.13402
330.859	0.12893
331.074	-0.00567
331.288	0.10748
331.503	-0.00122
331.717	-0.02059
331.931	0.21461
332.146	-0.06701
332.36	-0.1575
332.575	-0.10539
332.789	0.0356
333.003	0.23569
333.218	-0.07442
333.432	0.0296
333.646	0.03606
333.86	-0.01131
334.075	-0.11495
334.289	0.00628
334.503	-0.0396
334.717	-0.09749
334.932	-0.00101
335.146	0.10733
335.36	-0.02464
335.574	-0.11242
335.788	0.01156
336.003	0.06553
336.217	-0.09922
336.431	-0.10962
336.645	0.00954
336.859	-0.07995
337.073	-0.03498
337.287	0.17748
337.501	-0.15473
337.715	-0.00386
337.929	0.02976
338.143	-0.05976
338.357	-0.03196
338.571	-0.02052
338.785	-0.05879
338.999	0.06393
339.213	0.07315
339.427	-0.13573
339.641	0.02656
339.855	-0.01032
340.069	0.04643
340.283	-0.12169
340.497	0.04389
340.711	-0.02553
340.924	-0.03067
341.138	-0.05262
341.352	0.01265
341.566	-0.0599
341.78	0.06944
341.993	0.12185
342.207	0.04931
342.421	-0.04921
342.635	0.04805
342.848	0.12999
343.062	-0.01484
343.276	-0.02436
343.49	-0.08383
343.703	0.09875
343.917	0.12806
344.131	0.01326
344.344	-0.00156
344.558	0.08302
344.771	-0.16565
344.985	-0.03268
345.199	-0.02456
345.412	0.01995
345.626	-0.0903
345.839	-0.0119
346.053	-0.01549
346.266	0.02317
346.48	-0.01994
346.693	-0.01239
346.907	-0.07191
347.12	0.02066
347.334	0.01556
347.547	-0.02194
347.76	0.01334
347.974	0.05157
348.187	-0.02911
348.401	-0.06813
348.614	0.09221
348.827	-0.06925
349.041	-0.06072
349.254	-0.02531
349.467	-0.1127
349.681	-0.02793
349.894	-0.008
350.107	-0.01537
350.32	-0.02603
350.534	-0.04315
350.747	-0.09503
350.96	0.04535
351.173	-0.03128
351.386	0.06272
351.6	-0.05429
351.813	-0.10337
352.026	-0.15971
352.239	-0.04853
352.452	-0.11749
352.665	0.07897
352.878	0.13296
353.092	-0.0731
353.305	0.06795
353.518	0.01405
353.731	0.06488
353.944	-0.12222
354.157	-0.05892
354.37	-0.07004
354.583	0.11262
354.796	-0.05866
355.009	-0.20826
355.222	0.14529
355.435	-0.00857
355.647	-0.07413
355.86	-0.01849
356.073	0.07692
356.286	-0.01328
356.499	0.02457
356.712	0.01029
356.925	0.03889
357.138	-0.13122
357.35	-0.04985
357.563	-0.00448
357.776	-0.05338
357.989	-0.01712
358.201	-0.10634
358.414	-0.00817
358.627	-0.02312
358.84	0.02299
359.052	-0.05122
359.265	0.00642
359.478	0.02046
359.69	0.03981
359.903	-0.01868
360.116	-0.08845
360.328	-0.03979
360.541	-0.03211
360.753	-0.1089
360.966	-0.09927
361.179	-0.02611
361.391	-0.04591
361.604	0.02103
361.816	0.09346
362.029	-0.07001
362.241	-0.02798
362.454	-0.03686
362.666	-0.02491
362.879	0.05789
363.091	-0.00739
363.304	0.02564
363.516	0.03501
363.728	0.11576
363.941	0.03531
364.153	0.00164
364.366	-0.05096
364.578	-0.00178
364.79	-0.12355
365.003	-0.03827
365.215	-0.09845
365.427	-0.09269
365.639	0.00913
365.852	-0.09023
366.064	0.02521
366.276	-0.01096
366.488	0.01926
366.701	0.02861
366.913	0.05454
367.125	-0.08948
367.337	-0.09616
367.549	0.01593
367.762	0.02988
367.974	0.04808
368.186	-0.03656
368.398	-0.00901
368.61	0.04298
368.822	-0.0057
369.034	-0.05231
369.246	-0.03736
369.458	0.00305
369.67	0.00824
369.882	0.07638
370.094	0.04007
370.306	-0.02227
370.518	0.03851
370.73	-0.09785
370.942	-0.01493
371.154	0.07486
371.366	-0.01685
371.578	-0.02424
371.79	0.03208
372.002	-0.05707
372.214	-0.05413
372.425	-0.07186
372.637	0.041
372.849	0.02831
373.061	0.02912
373.273	0.01436
373.484	-0.11696
373.696	0.01035
373.908	0.05827
374.12	0.14208
374.331	-0.09123
374.543	0.05299
374.755	-0.0144
374.967	-0.02577
375.178	-0.11724
375.39	-0.0468
375.602	-0.07951
375.813	-0.03801
376.025	0.04305
376.236	0.02672
376.448	0.08258
376.66	-0.04502
376.871	-0.04714
377.083	0.08466
377.294	0.10506
377.506	-0.00341
377.717	0.09328
377.929	0.04569
378.14	0.00508
378.352	-0.03723
378.563	-0.02586
378.775	0.01258
378.986	-0.09072
379.197	0.04087
379.409	-0.03283
379.62	-0.01073
379.832	0.17846
380.043	-0.04447
380.254	-0.06576
380.466	0.07448
380.677	0.01
380.888	-0.0819
381.1	0.00855
381.311	-0.06161
381.522	-0.00583
381.733	-0.03145
381.945	0.06916
382.156	0.13933
382.367	-0.07651
382.578	0.03665
382.789	-0.06239
383.001	-0.01184
383.212	-0.09144
383.423	0.01585
383.634	0.11084
383.845	-0.01207
384.056	-0.00544
384.267	0.05512
384.478	0.09992
384.69	-0.03812
384.901	-0.08511
385.112	0.01497
385.323	0.07865
385.534	0.03444
385.745	-0.0219
385.956	-0.00029
386.167	0.01019
386.378	-0.00809
386.588	-0.0128
386.799	0.03903
387.01	-0.01559
387.221	-0.05311
387.432	0.02617
387.643	-0.02299
387.854	-0.00136
388.065	0.01992
388.275	-0.02789
388.486	-0.02616
388.697	-0.0565
388.908	-0.08046
389.119	-0.11495
389.329	0.05192
389.54	0.04949
389.751	0.0041
389.962	0.02873
390.172	0.02404
390.383	0.03808
390.594	-0.01233
390.804	-0.00508
391.015	0.01008
391.226	0.10235
391.436	-0.11187
391.647	-0.07129
391.858	0.03122
392.068	0.05579
392.279	-0.01986
392.489	-0.0633
392.7	0.07984
392.91	0.02099
393.121	0.01665
393.331	-0.01815
393.542	-0.01368
393.752	0.01252
393.963	0.11541
394.173	-0.05518
394.384	-0.09797
394.594	0.03098
394.804	-0.00757
395.015	0.02476
395.225	-0.05701
395.436	0.05634
395.646	0.01186
395.856	-0.07964
396.067	0.02601
396.277	-0.07137
396.487	0.01465
396.697	-0.03531
396.908	-0.09488
397.118	-0.10959
397.328	0.1162
397.538	-0.06444
397.749	-0.07837
397.959	-0.05258
398.169	-0.08583
398.379	0.03866
398.589	0.06597
398.8	-0.07074
399.01	0.01076
399.22	-0.13133
399.43	-0.00344
399.64	0.04149
399.85	0.12089
400.06	-0.01503
400.27	-0.06608
400.48	-0.03413
400.69	0.00048
400.9	-0.08489
401.11	0.00668
401.32	-0.05767
401.53	0.08609
401.74	-0.04387
401.95	0.05274
402.16	-0.18996
402.37	-0.11181
402.58	-0.03813
402.79	0.00061
403	0.13036
403.209	-0.00706
403.419	0.01831
403.629	-0.10138
403.839	0.05712
404.049	-0.18308
404.258	0.043
404.468	0.04501
404.678	-0.05397
404.888	0.02834
405.097	-0.06028
405.307	0.01885
405.517	0.00915
405.727	0.01543
405.936	0.0034
406.146	0.02258
406.356	-0.0319
406.565	-0.02704
406.775	-0.01342
406.984	0.05463
407.194	-0.00414
407.404	-0.05255
407.613	0.01113
407.823	0.03918
408.032	-0.09502
408.242	0.02573
408.451	-0.04061
408.661	0.03835
408.87	-0.01223
409.08	-0.09047
409.289	-0.00433
409.499	0.00596
409.708	0.09527
409.918	-0.01937
410.127	0.02375
410.336	0.07375
410.546	0.04292
410.755	0.03702
410.964	0.08694
411.174	-0.00643
411.383	-0.08373
411.592	0.0205
411.802	-0.05506
412.011	-0.03207
412.22	-0.12428
412.429	-0.00105
412.639	-0.04111
412.848	-0.11276
413.057	-0.10418
413.266	0.02277
413.475	0.05061
413.685	-0.05601
413.894	0.08416
414.103	-0.04102
414.312	0.03102
414.521	0.01739
414.73	0.03024
414.939	-0.0692
415.148	-0.01288
415.357	-0.02032
415.566	-0.02242
415.776	0.02044
415.985	0.04793
416.194	0.01501
416.403	-0.01808
416.611	-0.0117
416.82	0.01455
417.029	0.02648
417.238	-0.0032
417.447	-0.03759
417.656	-0.02338
417.865	0.0002
418.074	-0.0429
418.283	-0.0487
418.492	-0.01686
418.7	-0.04314
418.909	0.00969
419.118	0.05818
419.327	-0.01118
419.536	0.00067
419.744	0.0085
419.953	0.03638
420.162	-0.03447
420.371	0.064
420.579	-0.00516
420.788	0.01066
420.997	0.03397
421.205	0.0442
421.414	0.02972
421.623	0.01216
421.831	-0.00915
422.04	-0.04787
422.249	-0.00924
422.457	0.02523
422.666	-0.00482
422.874	-0.00324
423.083	0.01366
423.291	0.06991
423.5	-0.02497
423.708	0.07216
423.917	0.0174
424.125	0.03213
424.334	0.00125
424.542	0.01615
424.751	0.05934
424.959	-0.02389
425.167	0.01474
425.376	0.05028
425.584	0.01524
425.793	-0.00616
426.001	0.02706
426.209	0.01342
426.418	0.01669
426.626	0.03678
426.834	0.02207
427.042	0.01193
427.251	-0.01448
427.459	-0.00115
427.667	-0.02631
427.875	-0.00234
428.084	0.01023
428.292	0.0088
428.5	-0.05343
428.708	0.02004
428.916	-0.0256
429.124	0.00153
429.333	-0.11704
429.541	0.03611
429.749	-0.04771
429.957	0.01069
430.165	0.05927
430.373	-0.11302
430.581	0.11013
430.789	0.15129
430.997	0.05586
431.205	-0.01995
431.413	0.07491
431.621	0.0572
431.829	-0.01597
432.037	0.0916
432.245	-0.0438
432.453	0.01081
432.661	0.0792
432.869	0.0391
433.076	-0.01145
433.284	-0.022
433.492	0.02505
433.7	0.00415
433.908	0.00693
434.116	-0.00416
434.323	0.02825
434.531	0.01274
434.739	0.03043
434.947	0.01203
435.154	0.00304
435.362	0.00745
435.57	0.02713
435.778	0.01217
435.985	0.00764
436.193	0.12071
436.401	0.03031
436.608	-0.0034
436.816	-0.00998
437.023	-0.0225
437.231	0.02669
437.439	0.00681
437.646	-0.01969
437.854	0.05024
438.061	0.00434
438.269	0.02698
438.476	-0.0186
438.684	-0.06582
438.891	-0.04296
439.099	0.04101
439.306	0.04328
439.514	0.00129
439.721	-0.00225
439.929	-0.00867
440.136	0.00084
440.343	0.00267
440.551	0.06475
440.758	-0.00357
440.965	-0.01015
441.173	0.00933
441.38	-0.00299
441.587	0.00626
441.795	-0.00191
442.002	0.02778
442.209	-0.03274
442.416	0.02352
442.624	-0.00523
442.831	0.03153
443.038	-0.00738
443.245	-0.01012
443.452	0.0116
443.66	-0.02735
443.867	-0.02931
444.074	-0.02927
444.281	-0.01434
444.488	0.04552
444.695	0.05532
444.902	0.04898
445.109	-0.01935
445.316	0.00675
445.523	-0.04638
445.73	-0.00224
445.937	0.03538
446.144	0.01299
446.351	0.00925
446.558	0.10634
446.765	-0.02356
446.972	0.02506
447.179	0.05394
447.386	-0.03472
447.593	0.11033
447.8	0.03347
448.007	0.00683
448.214	0.05084
448.42	-0.03606
448.627	0.02704
448.834	0.027
449.041	0.01436
449.248	-0.01369
449.454	-0.01032
449.661	0.07735
449.868	-0.03683
450.075	0.01955
450.281	-0.03401
450.488	0.01313
450.695	-0.01684
450.901	0.05481
451.108	0.00759
451.315	0.02742
451.521	-0.00301
451.728	0.03202
451.935	-0.0073
452.141	0.02549
452.348	0.0093
452.554	-0.03067
452.761	-0.01055
452.967	0.03844
453.174	-0.05817
453.38	0.00481
453.587	0.05489
453.793	-0.02656
454	0.0151
454.206	-0.0034
454.413	-0.02025
454.619	0.01161
454.825	0.06639
455.032	0.04787
455.238	0.01432
455.445	0.01512
455.651	-0.02771
455.857	0.02274
456.064	-0.03209
456.27	0.00306
456.476	-0.03633
456.682	-0.02162
456.889	0.06323
457.095	0.02154
457.301	0.02726
457.507	0.01693
457.714	0.00959
457.92	-0.03582
458.126	-0.01627
458.332	-0.02542
458.538	0.01549
458.744	0.01774
458.951	-0.04383
459.157	0.04102
459.363	0.003
459.569	-0.0084
459.775	0.03838
459.981	0.02789
460.187	0.04537
460.393	0.05452
460.599	0.03405
460.805	0.04894
461.011	0.03232
461.217	0.02014
461.423	0.01783
461.629	-0.01562
461.835	0.07049
462.041	0.04167
462.247	0.04444
462.453	0.02797
462.658	0.09072
462.864	0.01396
463.07	0.01316
463.276	-0.04876
463.482	0.01375
463.688	-0.0065
463.893	0.02508
464.099	-0.02481
464.305	0.0223
464.511	-0.03846
464.716	-0.05526
464.922	0.05973
465.128	0.05204
465.333	0.1159
465.539	0.02603
465.745	0.00202
465.95	-0.03527
466.156	0.05301
466.362	-0.00557
466.567	0.0325
466.773	0.02018
466.978	0.04627
467.184	-0.0065
467.389	-0.02919
467.595	0.00734
467.8	0.04119
468.006	0.01416
468.211	-0.02731
468.417	-0.0369
468.622	-0.04046
468.828	-0.02783
469.033	-0.02251
469.239	-0.08122
469.444	0.06767
469.649	0.02525
469.855	-0.02567
470.06	-0.02883
470.266	0.03056
470.471	0.02176
470.676	-0.04569
470.881	-0.01482
471.087	0.06203
471.292	-0.01675
471.497	0.02768
471.703	0.06825
471.908	0.08733
472.113	-0.06219
472.318	0.02076
472.523	0.04146
472.729	0.02361
472.934	0.02896
473.139	-0.0593
473.344	0.01914
473.549	-0.00036
473.754	0.04092
473.959	-0.02884
474.164	0.00427
474.369	0.05378
474.575	0.01916
474.78	-0.02178
474.985	0.01519
475.19	-0.13559
475.395	-0.03673
475.6	-0.02053
475.804	0.01053
476.009	-0.00723
476.214	-0.01178
476.419	0.10597
476.624	0.05502
476.829	-0.03098
477.034	0.02254
477.239	-0.02836
477.444	0.02605
477.648	0.04507
477.853	-0.02884
478.058	0.02579
478.263	0.00945
478.468	0.00359
478.672	0.01301
478.877	0.03199
479.082	0.01011
479.287	0.07119
479.491	0.02435
479.696	0.07644
479.901	-0.00581
480.105	0.02302
480.31	0.04221
480.515	0.06446
480.719	0.03486
480.924	0.02398
481.128	0.03602
481.333	-0.02137
481.538	0.02376
481.742	0.01018
481.947	0.05518
482.151	0.05435
482.356	0.05735
482.56	0.09836
482.765	0.05568
482.969	0.13678
483.174	0.12464
483.378	0.16554
483.582	0.20858
483.787	0.23326
483.991	0.15839
484.196	0.27552
484.4	0.24596
484.604	0.25128
484.809	0.25825
485.013	0.18673
485.217	0.12198
485.422	0.15581
485.626	0.11607
485.83	0.07291
486.034	0.01332
486.239	0.12031
486.443	0.14085
486.647	0.10576
486.851	0.112
487.055	0.16579
487.26	0.15631
487.464	0.10069
487.668	0.11948
487.872	0.16238
488.076	0.15265
488.28	0.15199
488.484	0.1125
488.688	0.15207
488.892	0.09354
489.096	0.0779
489.3	0.08821
489.504	0.08272
489.708	0.00342
489.912	0.04587
490.116	0.07316
490.32	0.03372
490.524	0.06667
490.728	0.1386
490.932	0.06217
491.136	0.11532
491.34	0.13694
491.544	0.06334
491.748	0.12231
491.951	0.1189
492.155	0.10169
492.359	0.06151
492.563	0.05885
492.767	0.07923
492.97	0.03713
493.174	0.09994
493.378	0.04587
493.582	-0.03359
493.785	0.02609
493.989	-0.00892
494.193	-0.00914
494.396	-0.00193
494.6	0.04949
494.804	0.04348
495.007	-0.09083
495.211	0.00936
495.414	-0.01735
495.618	0.05466
495.822	-0.00684
496.025	-0.00286
496.229	-0.03476
496.432	0.00001
496.636	-0.01254
496.839	-0.05083
497.043	0.03263
497.246	0.0928
497.45	0.02057
497.653	0.05623
497.856	0.03397
498.06	0.01777
498.263	0.0407
498.467	0.04058
498.67	0.02356
498.873	-0.00065
499.077	0.05852
499.28	0.08769
499.483	0.05485
499.686	0.01473
499.89	-0.01134
500.093	0.05355
500.296	0.017
500.499	0.05594
500.703	0.04923
500.906	-0.02187
501.109	0.03129
501.312	0.06203
501.515	-0.01545
501.719	0.00421
501.922	0.04237
502.125	-0.00308
502.328	-0.01372
502.531	0.02455
502.734	0.02856
502.937	0.03622
503.14	0.05965
503.343	0.04949
503.546	0.04598
503.749	-0.05123
503.952	0.10211
504.155	0.00994
504.358	-0.0401
504.561	0.02916
504.764	-0.02365
504.967	0.06454
505.17	0.02756
505.373	-0.00318
505.576	0.06237
505.778	0.01586
505.981	-0.05704
506.184	0.06376
506.387	-0.04194
506.59	-0.00186
506.793	0.03866
506.995	0.0476
507.198	-0.00305
507.401	0.07314
507.604	0.00034
507.806	0.07263
508.009	0.00683
508.212	0.02969
508.414	-0.05021
508.617	0.04189
508.82	0.05601
509.022	-0.00676
509.225	0.00307
509.427	0.03467
509.63	-0.00897
509.833	0.03583
510.035	0.00525
510.238	-0.02298
510.44	-0.00623
510.643	0.05687
510.845	-0.00256
511.048	0.07171
511.25	-0.06002
511.453	-0.04397
511.655	-0.01895
511.858	0.04917
512.06	-0.03043
512.262	-0.00112
512.465	0.07222
512.667	0.01079
512.869	0.00955
513.072	-0.03313
513.274	-0.01511
513.476	-0.03013
513.679	0.0045
513.881	0.01073
514.083	0.01369
514.286	0.00473
514.488	-0.02866
514.69	0.01478
514.892	0.03243
515.094	-0.02249
515.297	-0.0345
515.499	0.02506
515.701	0.01589
515.903	0.05115
516.105	0.06677
516.307	0.01032
516.509	0.01919
516.711	0.03623
516.913	0.03137
517.116	-0.0076
517.318	0.03051
517.52	0.0844
517.722	0.03124
517.924	-0.02657
518.126	0.05225
518.328	0.05509
518.529	0.00777
518.731	0.05929
518.933	0.02122
519.135	0.04643
519.337	0.06025
519.539	0.07234
519.741	-0.02237
519.943	-0.04608
520.145	0.07846
520.346	0.05304
520.548	-0.00683
520.75	-0.07551
520.952	-0.02963
521.153	-0.00355
521.355	-0.02179
521.557	0.04274
521.759	-0.00842
521.96	-0.05119
522.162	0.04184
522.364	0.0236
522.565	0.10269
522.767	-0.06045
522.969	-0.05017
523.17	0.08154
523.372	-0.06329
523.573	0.04064
523.775	0.007
523.977	0.11505
524.178	0.03514
524.38	0.0269
524.581	0.03994
524.783	0.12122
524.984	-0.00637
525.186	0.02519
525.387	-0.00809
525.589	0.03376
525.79	0.03647
525.991	0.03854
526.193	0.05843
526.394	0.05269
526.596	0.11116
526.797	0.08189
526.998	-0.00391
527.2	0.04928
527.401	0.08796
527.602	0.08788
527.803	0.09736
528.005	0.15149
528.206	0.07357
528.407	0.15606
528.608	0.12672
528.81	0.19429
529.011	0.18706
529.212	0.17086
529.413	0.17551
529.614	0.15423
529.815	0.1263
530.017	0.13528
530.218	0.05785
530.419	0.03347
530.62	0.111
530.821	0.09819
531.022	0.0536
531.223	0.05019
531.424	0.00267
531.625	0.0591
531.826	-0.01615
532.027	0.0214
532.228	0.06109
532.429	0.05261
532.63	0.09719
532.831	0.08023
533.032	0.0655
533.233	0.09279
533.433	0.1381
533.634	0.0843
533.835	0.1199
534.036	0.04279
534.237	0.09736
534.438	0.03854
534.638	0.0784
534.839	0.04395
535.04	0.04442
535.241	0.02862
535.441	0.00593
535.642	0.06554
535.843	0.00727
536.043	0.06123
536.244	-0.00166
536.445	0.01724
536.645	0.04919
536.846	0.0675
537.047	0.00758
537.247	0.07432
537.448	0.01585
537.648	-0.04228
537.849	0.04309
538.049	-0.00135
538.25	-0.00823
538.451	0.03433
538.651	0.02381
538.851	0.02954
539.052	0.09185
539.252	0.02042
539.453	0.08595
539.653	0.07014
539.854	0.04766
540.054	0.00285
540.254	0.08796
540.455	0.09878
540.655	0.08048
540.855	0.111
541.056	0.13736
541.256	0.12963
541.456	0.06068
541.657	0.17343
541.857	0.10327
542.057	0.09844
542.257	0.12106
542.458	0.08538
542.658	0.08189
542.858	0.13179
543.058	0.07715
543.258	0.0477
543.458	0.03055
543.659	0.0571
543.859	0.05451
544.059	0.0178
544.259	0.02821
544.459	0.0259
544.659	0.04393
544.859	0.04079
545.059	0.04745
545.259	0.04142
545.459	0.00523
545.659	0.04267
545.859	-0.01429
546.059	0.05607
546.259	0.05467
546.459	-0.00647
546.659	0.03341
546.859	0.01897
547.059	-0.04718
547.258	-0.02055
547.458	0.03546
547.658	0.05762
547.858	0.06147
548.058	-0.03101
548.258	-0.08277
548.457	-0.00975
548.657	-0.03761
548.857	0.02382
549.057	-0.00028
549.256	0.05773
549.456	-0.05688
549.656	0.02431
549.855	0.01665
550.055	-0.12388
550.255	-0.00791
550.454	0.05546
550.654	-0.07021
550.853	-0.02805
551.053	0.01438
551.253	0.01999
551.452	0.00264
551.652	-0.04566
551.851	0.10731
552.051	-0.01302
552.25	-0.03851
552.45	0.01576
552.649	-0.03647
552.849	-0.03155
553.048	-0.02125
553.248	0.00459
553.447	-0.00123
553.646	-0.00599
553.846	0.00851
554.045	0.06564
554.244	-0.02189
554.444	-0.10113
554.643	-0.01585
554.842	-0.02408
555.042	-0.01238
555.241	0.03057
555.44	-0.02291
555.64	0.03724
555.839	-0.10286
556.038	-0.00506
556.237	-0.07385
556.436	0.0346
556.636	0.09081
556.835	0.03523
557.034	0.01419
557.233	-0.06163
557.432	-0.09879
557.631	-0.05664
557.83	0.04351
558.029	-0.02468
558.228	-0.02429
558.427	0.01548
558.626	-0.01446
558.825	-0.02928
559.024	-0.06265
559.223	0.04932
559.422	0.11145
559.621	-0.04711
559.82	0.05373
560.019	-0.05086
560.218	-0.02108
560.417	0.06781
560.616	0.06639
560.815	0.06781
561.014	-0.03498
561.212	0.09362
561.411	0.02486
561.61	0.07619
561.809	0.03655
562.008	-0.01136
562.206	-0.02275
562.405	-0.09437
562.604	0.04348
562.803	0.07526
563.001	0.12682
563.2	0.0073
563.399	0.03554
563.597	0.0171
563.796	0.10418
563.995	-0.04382
564.193	-0.00379
564.392	0.05759
564.59	-0.0224
564.789	0.06002
564.988	0.04054
565.186	-0.04149
565.385	0.08956
565.583	-0.02543
565.782	-0.00717
565.98	0.03178
566.179	0.00294
566.377	-0.0206
566.575	-0.07087
566.774	0.05667
566.972	0.10205
567.171	0.06023
567.369	0.02833
567.567	0.07245
567.766	0.02738
567.964	0.01101
568.162	0.11036
568.361	0.03863
568.559	0.00837
568.757	-0.08513
568.956	-0.04421
569.154	-0.01149
569.352	0.03927
569.55	-0.02106
569.748	0.01245
569.947	-0.10478
570.145	-0.04387
570.343	0.03263
570.541	-0.01517
570.739	-0.08434
570.937	-0.04708
571.135	-0.01446
571.333	-0.04166
571.532	0.05562
571.73	0.02139
571.928	-0.09187
572.126	0.04831
572.324	-0.00191
572.522	0.01588
572.72	0.06384
572.918	0.02392
573.116	0.02209
573.313	-0.04655
573.511	-0.01928
573.709	0.03998
573.907	-0.03039
574.105	-0.06848
574.303	0.03237
574.501	-0.1534
574.699	0.08638
574.896	0.02345
575.094	0.0919
575.292	-0.04416
575.49	-0.05351
575.688	0.14153
575.885	-0.01206
576.083	0.03248
576.281	0.04387
576.478	-0.04132
576.676	-0.11123
576.874	-0.08556
577.071	0.09888
577.269	0.00667
577.467	-0.09797
577.664	0.00155
577.862	-0.06646
578.059	0.00682
578.257	-0.01742
578.455	0.02187
578.652	-0.11482
578.85	-0.09947
579.047	0.04718
579.245	-0.16606
579.442	0.07354
579.64	-0.16483
579.837	-0.02161
580.034	-0.11155
580.232	-0.05983
580.429	0.04365
580.627	-0.02558
580.824	-0.16121
581.021	0.01991
581.219	0.03473
581.416	0.06816
581.613	-0.01579
581.811	-0.18648
582.008	0.06355
582.205	0.03409
582.402	-0.03863
582.6	0.05132
582.797	0.04156
582.994	0.07954
583.191	0.03757
583.388	-0.12689
583.586	-0.13394
583.783	0.11669
583.98	-0.18513
584.177	0.00175
584.374	0.0343
584.571	-0.10127
584.768	-0.02866
584.965	-0.12052
585.162	0.05
585.359	-0.01933
585.556	-0.14398
585.753	0.17373
585.95	0.02017
586.147	-0.21404
586.344	0.01884
586.541	-0.07793
586.738	-0.10989
586.935	-0.02359
587.132	-0.02053
587.329	-0.14547
587.526	0.03901
587.722	0.20694
587.919	-0.03421
588.116	-0.0643
588.313	-0.04372
588.51	-0.03328
588.706	-0.09703
588.903	-0.04643
589.1	0.10247
589.297	-0.01603
589.493	-0.096
589.69	0.08049
589.887	-0.0422
590.083	-0.0192
590.28	-0.05767
590.477	-0.069
590.673	0.01963
590.87	0.03109
591.067	-0.15328
591.263	0.02747
591.46	0.06371
591.656	-0.07826
591.853	0.12698
592.049	0.07961
592.246	-0.13496
592.442	-0.12531
592.639	0.11286
592.835	0.08944
593.032	-0.05845
593.228	-0.06189
593.425	0.04563
593.621	-0.00022
593.817	0.11591
594.014	-0.01974
594.21	0.13025
594.406	0.07574
594.603	0.047
594.799	0.01925
594.995	0.09764
595.192	-0.0588
595.388	0.02977
595.584	-0.0051
595.78	0.14669
595.977	-0.10381
596.173	0.02121
596.369	0.03862
596.565	-0.07928
596.761	0.00262
596.957	-0.10424
597.154	-0.07431
597.35	-0.05321
597.546	0.07776
597.742	-0.11573
597.938	-0.00868
598.134	0.04798
598.33	-0.02633
598.526	-0.0206
598.722	0.09346
598.918	-0.04551
599.114	0.03047
599.31	-0.23521
599.506	-0.04951
599.702	-0.04043
599.898	0.03974
600.094	0.03274
600.29	-0.08671
600.485	-0.04215
600.681	-0.17283
600.877	0.03487
601.073	0.14382
601.269	-0.16306
601.465	-0.02676
601.66	-0.01989
601.856	-0.1036
602.052	0.17709
602.248	0.02786
602.443	-0.01296
602.639	0.03602
602.835	0.1274
603.03	-0.01132
603.226	0.02161
603.422	0.05856
603.617	0.08119
603.813	0.12022
604.009	-0.05701
604.204	0.12576
604.4	0.15278
604.595	0.02699
604.791	0.07241
604.986	0.08436
605.182	-0.0203
605.377	-0.02615
605.573	0.17882
605.768	-0.0725
605.964	0.01756
606.159	-0.03481
606.355	-0.11656
606.55	-0.01364
606.746	-0.00998
606.941	0.15271
607.136	-0.25658
607.332	0.1725
607.527	0.03121
607.722	0.03586
607.918	0.01079
608.113	-0.08768
608.308	-0.04331
608.503	-0.04649
608.699	0.02566
608.894	-0.00357
609.089	-0.05464
609.284	0.07259
609.479	0.06122
609.675	-0.04417
609.87	0.07887
610.065	-0.09359
610.26	-0.19698
610.455	-0.04518
610.65	0.04784
610.845	0.09783
611.04	-0.17859
611.235	-0.15215
611.43	0.04405
611.625	-0.04364
611.82	0.01157
612.015	-0.02303
612.21	-0.07238
612.405	-0.11164
612.6	-0.03407
612.795	0.26279
612.99	-0.14857
613.185	-0.06282
613.38	0.08897
613.575	0.00599
613.77	0.17687
613.965	0.00518
614.159	0.06928
614.354	-0.08679
614.549	-0.19735
614.744	-0.26645
614.938	-0.0308
615.133	0.0458
615.328	0.08201
615.523	-0.06369
615.717	-0.10585
615.912	0.05552
616.107	0.00318
616.301	-0.13972
616.496	0.09344
616.691	0.11115
616.885	0.07863
617.08	0.00476
617.274	-0.04342
617.469	-0.16299
617.664	-0.19206
617.858	0.17939
618.053	0.11326
618.247	-0.00339
618.442	0.04799
618.636	-0.10064
618.831	-0.12638
619.025	-0.11247
619.219	0.01058
619.414	-0.02321
619.608	-0.11579
619.803	0.04529
619.997	-0.03958
620.191	-0.00193
620.386	0.04833
620.58	0.08022
620.774	0.04021
620.969	-0.21049
621.163	-0.02841
621.357	-0.06661
621.551	0.03989
621.746	-0.04177
621.94	-0.24889
622.134	-0.04799
622.328	0.03439
622.522	0.09977
622.716	-0.02253
622.911	-0.00202
623.105	0.0545
623.299	0.00583
623.493	-0.06122
623.687	0.13253
623.881	-0.23142
624.075	-0.08562
624.269	-0.03336
624.463	-0.16715
624.657	-0.06178
624.851	-0.18625
625.045	-0.14526
625.239	-0.01114
625.433	-0.0804
625.627	-0.15484
625.821	0.07564
626.015	-0.1296
626.209	-0.0128
626.403	0.05005
626.596	0.02288
626.79	-0.01479
626.984	0.07573
627.178	0.03592
627.372	-0.14495
627.565	-0.0869
627.759	0.12784
627.953	0.01154
628.147	-0.02069
628.34	0.10749
628.534	-0.01014
628.728	-0.15462
628.921	0.18469
629.115	0.08963
629.309	-0.10665
629.502	0.01433
629.696	-0.19765
629.89	-0.03522
630.083	-0.01402
630.277	-0.36962
630.47	0.14583
630.664	-0.17659
630.857	0.03472
631.051	0.01167
631.244	0.16025
631.438	-0.04765
631.631	0.16819
631.825	-0.01233
632.018	-0.22696
632.212	0.20656
632.405	-0.22861
632.598	-0.07124
632.792	-0.04666
632.985	-0.07905
633.178	-0.17836
633.372	-0.08524
633.565	-0.07957
633.758	0.00035
633.952	-0.11046
634.145	-0.14552
634.338	-0.07308
634.531	-0.05855
634.724	-0.27127
634.918	-0.22502
635.111	-0.1719
635.304	-0.06418
635.497	0.15141
635.69	-0.00982
635.883	-0.00755
636.077	0.22538
636.27	-0.20902
636.463	0.00114
636.656	-0.09299
636.849	0.28107
637.042	-0.01965
637.235	-0.13365
637.428	0.02679
637.621	0.15887
637.814	-0.24135
638.007	-0.05395
638.2	0.16642
638.393	0.00618
638.586	-0.11848
638.778	-0.02437
638.971	-0.19844
639.164	-0.03092
639.357	-0.17172
639.55	-0.00595
639.743	0.00218
639.935	-0.23714
640.128	0.27327
640.321	0.11838
640.514	0.02662
640.707	0.15692
640.899	0.07071
641.092	0.07888
641.285	0.1293
641.477	0.09103
641.67	0.306
641.863	-0.28914
642.055	0.00095
642.248	0.07665
642.441	0.07678
642.633	-0.20627
642.826	-0.1744
643.018	-0.02643
643.211	-0.01694
643.403	-0.23038
643.596	0.28047
643.788	-0.23274
643.981	0.10655
644.173	0.02796
644.366	-0.04933
644.558	-0.19424
644.751	0.06177
644.943	0.34286
645.135	0.10221
645.328	-0.15369
645.52	0.0523
645.712	0.09218
645.905	0.01697
646.097	-0.06049
646.289	-0.13331
646.482	0.04588
646.674	-0.45016
646.866	-0.11884
647.058	-0.09082
647.251	0.07035
647.443	-0.07946
647.635	-0.18092
647.827	0.04021
648.019	-0.18465
648.211	-0.07201
648.404	-0.11508
648.596	0.07156
648.788	0.04368
648.98	-0.10223
649.172	0.26463
649.364	0.2262
649.556	0.05926
649.748	0.22735
649.94	-0.12366
650.132	0.06119
650.324	-0.06005
650.516	-0.151
650.708	0.06239
650.9	-0.15553
651.092	-0.21343
651.284	0.02252
651.476	-0.08683
651.667	-0.15525
651.859	-0.16644
652.051	-0.11752
652.243	0.01579
652.435	0.07485
652.627	-0.00456
652.818	0.07515
653.01	-0.02956
653.202	0.09669
653.394	-0.26718
653.585	-0.2205
653.777	-0.15617
653.969	-0.0659
654.16	-0.06685
654.352	0.17737
654.544	-0.19303
654.735	0.05485
654.927	-0.17138
655.118	-0.15358
655.31	0.01599
655.502	0.08717
655.693	0.23674
655.885	-0.20508
656.076	0.14849
656.268	0.14005
656.459	-0.24953
656.651	0.03065
656.842	0.15256
657.034	0.08742
657.225	0.13861
657.416	0.26179
657.608	0.00866
657.799	0.07092
657.99	-0.18802
658.182	-0.26666
658.373	-0.28963
658.564	0.03126
658.756	0.15045
658.947	-0.2478
659.138	0.09942
659.33	0.08431
659.521	-0.04083
659.712	0.20064
659.903	0.08564
660.094	-0.04373
660.286	-0.08524
660.477	0.17691
660.668	0.11637
660.859	-0.05081
661.05	-0.03309
661.241	-0.30452
661.432	-0.09146
661.623	-0.09673
661.814	-0.09584
662.006	0.37054
662.197	0.19985
662.388	-0.13994
662.579	-0.05597
662.77	0.03027
662.96	-0.03422
663.151	0.34233
663.342	-0.31275
663.533	-0.0654
663.724	0.08656
663.915	0.2867
664.106	0.09582
664.297	0.35896
664.488	-0.31508
664.678	-0.24838
664.869	0.27718
665.06	-0.06104
665.251	-0.10863
665.442	0.18697
665.632	-0.13193
665.823	0.73742
666.014	-0.0562
666.204	0.22188
666.395	-0.28559
666.586	-0.02022
666.776	-0.39166
666.967	-0.1874
667.158	-0.21334
667.348	0.16748
667.539	-0.14012
667.729	-0.0955
667.92	0.02536
668.111	0.04668
668.301	0.49043
668.492	0.05098
668.682	0.07932
668.873	0.28569
669.063	0.01006
669.253	-0.01118
669.444	-0.14869
669.634	-0.25023
669.825	-0.2486
670.015	0.30141
670.206	0.28558
670.396	0.10103
670.586	-0.23987
670.777	0.11204
670.967	-0.4154
671.157	-0.08476
671.347	0.28772
671.538	-0.01893
671.728	0.21872
671.918	0.19974
672.108	0.36079
672.299	-0.47436
672.489	-0.49749
672.679	-0.07131
672.869	-0.0081
673.059	-0.05785
673.249	-0.2087
673.44	-0.38036
673.63	-0.08626
673.82	0.13772
674.01	-0.02071
674.2	0.20919
674.39	-0.00189
674.58	-0.10123
674.77	0.201
674.96	-0.12233
675.15	-0.29909
675.34	-0.31398
675.53	0.09602
675.72	-0.35092
675.91	-0.35641
676.099	-0.00392
676.289	-0.51396
676.479	0.19009
676.669	-0.28916
676.859	-0.1407
677.049	0.36988
677.238	0.21184
677.428	-0.07762
677.618	0.1263
677.808	-0.1558
677.997	-0.16019
678.187	-0.01626
678.377	0.27553
678.567	-0.19411
678.756	0.1347
678.946	0.31823
679.136	-0.17678
679.325	0.32728
679.515	0.0965
679.704	0.00746
679.894	0.0205
680.084	0.17247
680.273	0.02329
680.463	0.11289
680.652	-0.07772
680.842	-0.26272
681.031	0.26648
681.221	0.1331
681.41	0.06483
681.6	-0.1688
681.789	-0.25576
681.978	0.13038
682.168	0.28361
682.357	-0.28448
682.547	-0.31725
682.736	0.36429
682.925	-0.10265
683.115	-0.36822
683.304	-0.18551
683.493	-0.35697
683.682	-0.03867
683.872	-0.07717
684.061	0.18144
684.25	-0.26442
684.439	-0.05639
684.629	0.18758
684.818	-0.1563
685.007	0.2517
685.196	-0.00599
685.385	-0.29454
685.574	-0.00802
685.763	-0.20254
685.952	0.16118
686.142	-0.05374
686.331	0.05049
686.52	0.41441
686.709	0.43787
686.898	-0.2514
687.087	-0.08745
687.276	0.16538
687.465	0.31765
687.654	-0.38344
687.842	-0.25947
688.031	-0.05416
688.22	-0.63931
688.409	-0.326
688.598	-0.08031
688.787	-0.07519
688.976	-0.31419
689.165	-0.47561
689.353	-0.05035
689.542	0.37735
689.731	-0.17546
689.92	-0.18229
690.108	-0.10267
690.297	0.30728
690.486	0.04734
690.675	-0.76106
690.863	-0.49078
691.052	-0.07422
691.241	-0.88665
691.429	-0.12152
691.618	0.16313
691.806	0.00079
691.995	-0.01865
692.184	-0.29512
692.372	0.50707
692.561	-0.46841
692.749	0.39929
692.938	0.17258
693.126	-0.06983
693.315	-0.509
693.503	-0.03729
693.692	-0.17523
693.88	-0.51475
694.068	0.11806
694.257	0.48811
694.445	-0.23433
694.634	0.18728
694.822	-0.57338
695.01	0.08602
695.199	-0.57963
695.387	0.32804
695.575	0.1154
695.763	-0.58696
695.952	-0.50891
696.14	-0.09177
696.328	0.04738
696.516	-0.31243
696.705	-0.16934
696.893	0.15821
697.081	0.4588
697.269	-0.50149
697.457	-0.0883
697.645	-0.09197
697.833	-0.2205
698.021	0.25388
698.21	0.01278
698.398	-0.06994
698.586	0.16186
698.774	-0.13047
698.962	0.02593
699.15	0.03666
699.338	-0.12369
699.526	-0.28726
699.714	-0.03592
699.901	-0.14869
700.089	-0.09359
700.277	0.21093
700.465	0.17864
700.653	-0.14235
700.841	0.07821
701.029	0.33507
701.217	0.24014
701.404	-0.53566
701.592	0.40572
701.78	-0.33833
701.968	0.09305
702.155	0.33161
702.343	0.32433
702.531	0.44445
702.718	0.01653
702.906	-0.44588
703.094	0.70264
703.281	-0.07168
703.469	-0.28689
703.657	0.12354
703.844	0.36728
704.032	-0.0472
704.219	0.49585
704.407	0.23276
704.595	0.50539
704.782	0.04952
704.97	0.47447
705.157	-0.40908
705.345	0.42093
705.532	-0.57316
705.719	0.20827
705.907	-0.37414
706.094	-0.16284
706.282	-0.38787
706.469	0.08984
706.656	0.18277
706.844	-0.40036
707.031	-0.16878
707.218	0.56615
707.406	-0.11697
707.593	0.52423
707.78	-0.18026
707.968	0.24216
708.155	-0.1596
708.342	0.44255
708.529	-0.50494
708.716	-0.20404
708.904	-0.12363
709.091	-0.37843
709.278	0.48194
709.465	-0.14555
709.652	0.42102
709.839	0.77979
710.026	-0.01065
710.213	0.15425
710.4	0.25182
710.587	-0.5083
710.774	-0.36305
710.961	0.3031
711.148	0.66518
711.335	-0.81631
711.522	-0.39728
711.709	0.34959
711.896	-0.14446
712.083	0.0633
712.27	-0.48159
712.457	0.03976
712.644	-0.36088
712.831	-0.0086
713.017	0.90777
713.204	0.08594
713.391	0.04844
713.578	-0.6299
713.765	0.19141
713.951	-0.53773
714.138	-0.40459
714.325	-0.33902
714.512	0.13101
714.698	-0.38763
714.885	-0.23426
715.072	-0.42896
715.258	-0.20955
715.445	-0.06476
715.631	0.38725
715.818	0.21747
716.005	0.50726
716.191	0.11666
716.378	-0.01032
716.564	-0.16094
716.751	-0.21715
716.937	-0.14378
717.124	-0.25667
717.31	0.02405
717.497	-0.15165
717.683	-0.01583
717.869	-0.70653
718.056	0.13419
718.242	0.12588
718.429	-0.33694
718.615	-0.26316
718.801	-0.16408
718.988	0.35227
719.174	-0.13146
719.36	0.17794
719.547	0.22242
719.733	0.15296
719.919	-0.47071
720.105	0.1942
720.291	0.28657
720.478	-0.04861
720.664	-0.66498
720.85	-0.28648
721.036	0.41554
721.222	0.26624
721.408	-0.13533
721.595	-0.14255
721.781	-0.2162
721.967	-0.60222
722.153	0.37446
722.339	-0.24569
722.525	0.23054
722.711	-0.49121
722.897	0.10787
723.083	-0.14727
723.269	0.10104
723.455	0.18673
723.641	-0.49982
723.827	-0.4919
724.012	0.33668
724.198	0.81616
724.384	-0.20402
724.57	0.07567
724.756	0.67632
724.942	0.33964
725.127	-0.02474
725.313	-0.34797
725.499	0.16071
725.685	0.50001
725.87	0.56705
726.056	-0.28689
726.242	-0.0485
726.428	-0.35249
726.613	-0.44201
726.799	-0.13906
726.985	-0.05293
727.17	-0.60007
727.356	-0.09031
727.541	0.30046
727.727	-0.12372
727.913	0.48243
728.098	-0.54734
728.284	0.77431
728.469	0.72548
728.655	-0.54437
728.84	-0.43978
729.026	0.29893
729.211	-0.27953
729.397	-0.06112
729.582	-0.33499
729.767	0.39643
729.953	0.29495
730.138	-0.45499
730.323	-0.22347
730.509	-0.11518
730.694	0.08056
730.879	-0.14778
731.065	0.35069
731.25	0.18718
731.435	0.65928
731.621	0.29705
731.806	-0.36523
731.991	-0.38131
732.176	0.56118
732.361	-0.44609
732.547	-0.21396
732.732	-0.10838
732.917	-0.47542
733.102	-0.26628
733.287	0.30509
733.472	-0.16851
733.657	-0.38214
733.842	0.17244
734.027	-0.70535
734.212	0.071
734.397	0.0126
734.582	0.83844
734.767	-0.2891
734.952	0.37321
735.137	0.45793
735.322	0.42655
735.507	-0.66134
735.692	0.01202
735.877	0.58379
736.062	0.26526
736.247	-0.31047
736.431	0.30311
736.616	-0.65046
736.801	-0.06741
736.986	0.34948
737.171	-0.35907
737.355	-0.29349
737.54	-0.42236
737.725	0.30944
737.909	0.19801
738.094	0.19106
738.279	-1.16579
738.463	0.01886
738.648	0.30877
738.833	-0.16251
739.017	0.09263
739.202	0.09055
739.386	-0.96752
739.571	0.73864
739.756	0.01658
739.94	-0.48768
740.125	-0.71294
740.309	1.13624
740.494	-0.09437
740.678	0.39294
740.863	0.19269
741.047	-0.51999
741.231	-0.9011
741.416	0.64702
741.6	-0.01657
741.785	-0.64585
741.969	0.05981
742.153	-0.34433
742.338	-0.49675
742.522	-0.3042
742.706	-0.42593
742.89	0.18093
743.075	-0.52974
743.259	-0.83487
743.443	0.68628
743.627	-0.6626
743.812	-0.52044
743.996	0.42967
744.18	-0.1487
744.364	-0.30301
744.548	-0.05865
744.732	0.24514
744.916	-0.57631
745.1	0.63468
745.285	-0.39249
745.469	-0.09797
745.653	-0.28245
745.837	0.04059
746.021	1.13153
746.205	0.10772
746.389	-0.18305
746.573	0.03908
746.757	-0.77961
746.94	-1.2585
747.124	-0.21536
747.308	-0.00694
747.492	-0.10845
747.676	-1.22938
747.86	0.4054
748.044	-0.60902
748.227	0.63209
748.411	-0.41111
748.595	-0.57232
748.779	0.32658
748.963	0.04476
749.146	-0.39043
749.33	-0.49168
749.514	1.94121
749.697	0.9891
749.881	-1.25706
750.065	-1.06974
750.248	-0.60609
750.432	-1.11455
750.616	-0.73613
750.799	0.21824
750.983	-0.96831
751.166	-1.10751
751.35	0.12442
751.533	-0.8989
751.717	-0.30167
751.9	0.28606
752.084	0.16315
752.267	1.06787
752.451	-0.76824
752.634	-1.05957
752.818	-0.25089
753.001	-0.51527
753.184	-0.27153
753.368	-0.15718
753.551	-0.22147
753.734	-0.84092
753.918	1.12976
754.101	0.47486
754.284	-0.06828
754.467	-1.33381
754.651	0.79167
754.834	0.47669
755.017	0.83995
755.2	-0.8624
755.384	-0.0727
755.567	0.83205
755.75	-0.44331
755.933	-0.25612
756.116	-0.26945
756.299	-0.25399
756.482	-0.19552
756.665	0.53867
756.848	-0.24716
757.032	0.2579
757.215	0.23435
757.398	-0.24341
757.581	-0.90491
757.764	1.3863
757.947	0.20838
758.129	-1.11168
758.312	0.69956
758.495	0.82396
758.678	0.88718
758.861	-0.20763
759.044	-0.66886
759.227	-0.42356
759.41	-0.6782
759.592	-0.07956
759.775	-1.39199
759.958	0.50818
760.141	0.85226
760.324	-0.16875
760.506	-1.02873
760.689	-0.07848
760.872	0.33653
761.054	-0.25929
761.237	-0.47109
761.42	-1.24556
761.602	-0.56335
761.785	-0.95504
761.968	-1.10678
762.15	-0.73241
762.333	-0.40901
762.515	-0.18973
762.698	-0.13753
762.88	0.92485
763.063	0.59131
763.245	-0.4166
763.428	-0.04928
763.61	0.25483
763.793	0.13729
763.975	-0.12916
764.158	0.46351
764.34	-0.03632
764.522	0.53258
764.705	0.318
764.887	-0.78328
765.069	-0.06294
765.252	0.32001
765.434	-0.71885
765.616	0.76355
765.799	-1.20281
765.981	-0.057
766.163	-0.96997
766.345	1.13679
766.528	-0.49926
766.71	1.00563
766.892	-0.24644
767.074	0.10488
767.256	-0.69407
767.438	1.47915
767.62	-0.86261
767.802	-0.13507
767.985	-0.40528
768.167	0.96413
768.349	-0.31868
768.531	-0.06601
768.713	0.56638
768.895	1.0563
769.077	0.24621
769.259	-0.96553
769.441	0.70223
769.623	-0.80528
769.804	-1.35957
769.986	-2.51288
770.168	-0.48629
770.35	-1.29058
770.532	0.65033
770.714	0.5241
770.896	-0.25908
771.077	-2.36313
771.259	-0.70364
771.441	0.44115
771.623	-2.17185
771.804	-0.64387
771.986	0.19035
772.168	0.72962
772.35	-0.73334
772.531	1.12422
772.713	1.96181
772.894	-0.09476
773.076	1.83242
773.258	1.17018
773.439	-0.45785
773.621	0.59208
773.802	0.7524
773.984	0.42346
774.166	0.62942
774.347	-0.27921
774.529	0.68583
774.71	0.71253
774.891	0.30516
775.073	0.4508
775.254	-2.76344
775.436	1.77663
775.617	-0.02265
775.799	-1.3774
775.98	-0.30414
776.161	0.45712
776.343	-1.27072
776.524	-1.24957
776.705	1.62293
776.886	-2.51348
777.068	1.239
777.249	0.28426
777.43	1.10187
777.611	-1.87638
777.793	-0.09607
777.974	0.31358
778.155	-1.19184
778.336	-0.20266
778.517	0.52105
778.698	-0.82047
778.879	-0.19089
779.061	0.44243
779.242	-0.68073
779.423	-4.27805
779.604	0.5141
779.785	-1.49766
779.966	-0.13796
780.147	0.28049
780.328	0.29619
780.509	-0.51134
780.69	-0.31432
780.871	2.42756
781.051	-0.73494
781.232	-1.17084
781.413	0.1193
781.594	-0.74377
781.775	0.64902
781.956	1.37459
782.137	-0.47612
782.317	0.83506
782.498	-1.64693
782.679	0.23155
782.86	0.40407
783.04	-1.32688
783.221	-1.5764
783.402	1.78775
783.583	-0.29038
783.763	0.13529
783.944	-1.57104
784.124	-0.67159
784.305	-0.60942
784.486	0.59336
784.666	0.74089
784.847	0.22162
785.027	-1.56872
785.208	0.11895
785.388	0.39326
785.569	-0.74039
785.749	-0.34791
785.93	0.30853
786.11	1.03445
786.291	0.60273
786.471	1.37969
786.652	-0.97696
786.832	0.84924
787.012	-1.87236
787.193	-1.46768
787.373	-0.07153
787.553	-1.68828
787.734	-1.14947
787.914	-1.27662
788.094	0.859
788.275	-0.56743
788.455	0.38837
788.635	1.46235
788.815	-1.14649
788.995	0.2408
789.176	0.48742
789.356	0.36421
789.536	-0.59791
789.716	-0.86156
789.896	0.39204
790.076	-1.35618
790.256	1.97304
790.436	1.59549
790.616	-2.07997
790.796	-0.14524
790.976	0.51225
791.156	0.61662
791.336	-1.69087
791.516	0.27604
791.696	-1.8997
791.876	1.0202
792.056	0.96254
792.236	1.16863
792.416	-0.93831
792.596	0.08105
792.776	-0.12997
792.956	0.44104
793.135	1.52547
793.315	-0.33278
793.495	-0.94873
793.675	2.22947
793.854	0.95023
794.034	-0.56652
794.214	0.07421
794.394	0.37703
794.573	-0.86167
794.753	2.77424
794.933	0.73266
795.112	-2.00761
795.292	-0.38502
795.472	-0.50283
795.651	-1.61065
795.831	0.87833
796.01	0.29716
796.19	-0.04808
796.369	-0.65058
796.549	-0.26704
796.728	-1.59514
796.908	-1.59159
797.087	-0.93494
797.267	0.39216
797.446	0.50321
797.626	-0.30777
797.805	-0.6304
797.984	0.35013
798.164	-1.42787
798.343	-0.18742
798.522	-0.46752
798.702	-0.61226
798.881	-1.39879
799.06	-1.2506
799.239	-0.48669
799.419	0.54698
799.598	-1.25133
799.777	0.58902
799.956	-0.94907
800.136	1.5384
800.315	-1.22225
800.494	0.70444
800.673	-0.2998
800.852	0.53938
801.031	0.50589
801.21	-0.95418
801.389	-1.31285
801.568	-1.00025
801.747	0.15418
801.926	-3.3017
802.105	-0.67775
802.284	-1.16054
802.463	-1.63404
802.642	1.56836
802.821	-0.14776
803	-1.66343
803.179	-0.0846
803.358	-0.46176
803.537	-0.72713
803.716	-0.37839
803.895	-1.53025
804.073	-0.95629
804.252	-1.73643
804.431	0.34945
804.61	-0.7569
804.789	-0.76611
804.967	-0.56142
805.146	-1.67629
805.325	0.85995
805.503	-1.00545
805.682	0.02932
805.861	0.88614
806.039	-0.65062
806.218	0.24255
806.397	-0.57513
806.575	-1.24993
806.754	0.52164
806.932	-0.08689
807.111	-1.15696
807.289	-1.70011
807.468	-1.58999
807.646	2.47255
807.825	-1.80006
808.003	-2.0155
808.182	1.30659
808.36	-0.15621
808.539	-2.27373
808.717	1.96043
808.895	1.51452
809.074	-0.4946
809.252	-0.34479
809.43	-0.9729
809.609	0.04074
809.787	0.24792
809.965	-0.45024
810.144	0.66005
810.322	-0.14206
810.5	0.74627
810.678	-0.64524
810.856	-0.41195
811.035	0.10685
811.213	-2.20766
811.391	0.17783
811.569	0.51283
811.747	1.75973
811.925	-1.11553
812.103	-1.5986
812.281	-0.26405
812.459	-4.33426
812.637	-1.00458
812.816	-1.35142
812.994	2.51632
813.171	-0.00803
813.349	3.07998
813.527	-2.54212
813.705	0.03746
813.883	2.4346
814.061	-2.00002
814.239	-2.91058
814.417	-0.15568
814.595	2.7671
814.773	1.5857
814.95	-0.12355
815.128	0.85669
815.306	-1.41345
815.484	0.84918
815.662	-2.37287
815.839	-1.94191
816.017	3.75516
816.195	0.75689
816.372	-0.50331
816.55	0.48852
816.728	-0.07563
816.905	1.08249
817.083	1.06067
817.261	0.86382
817.438	-1.63565
817.616	-0.40787
817.793	-0.1485
817.971	-1.76537
818.148	-3.4176
818.326	-1.84081
818.503	-1.40464
818.681	-0.79341
818.858	1.98315
819.036	-0.32337
819.213	1.53653
819.391	-0.49263
819.568	-0.81896
819.745	-0.81318
819.923	-0.30083
820.1	1.66659
820.277	-0.79668
820.455	-0.46792
820.632	-1.39377
820.809	-0.99759
820.986	0.25952
821.164	0.63898
821.341	-0.69579
821.518	0.15788
821.695	-0.08752
821.872	0.04206
822.05	-0.01477
822.227	-0.1672
822.404	-0.02564
822.581	0.22067
822.758	-0.03265
822.935	0.07358
823.112	0.00863
823.289	-0.15778
823.466	0.20285
823.643	0.08517
823.82	0.03428
823.997	-0.18513
824.174	0.00004
824.351	0.11767
824.528	0.24114
824.705	-0.32359
824.882	-0.29853
825.059	-0.14932
825.236	-0.33153
825.412	0.14089
825.589	-0.63895
825.766	-0.06103
825.943	-0.64388
826.12	-0.09053
826.296	0.19481
826.473	-0.74312
826.65	0.52493
826.827	0.04235
827.003	-0.20435
827.18	0.11132
827.357	-0.27932
827.533	-0.33136
827.71	-0.43041
827.887	0.17993
828.063	-0.20138
828.24	-0.26096
828.416	0.34883
828.593	0.48866
828.769	-0.28627
828.946	0.09593
829.122	-0.88876
829.299	0.31075
829.475	0.56976
829.652	-2.1563
829.828	1.80165
830.005	0.09636
830.181	0.68816
830.357	0.63515
830.534	0.21789
830.71	0.45336
830.886	-0.72748
831.063	-1.55773
831.239	0.43742
831.415	-0.53829
831.592	-1.50631
831.768	-0.23857
831.944	1.05165
832.12	-2.00482
832.296	0.18492
832.473	0.33089
832.649	-1.90911
832.825	1.14534
833.001	0.1969
833.177	-0.5857
833.353	0.80531
833.529	0.40016
833.705	-0.14737
833.881	0.49774
834.058	-0.54861
834.234	-0.07357
834.41	-0.60619
834.586	0.21572
834.761	-0.36863
834.937	0.26576
835.113	0.53998
835.289	0.04452
835.465	0.19178
835.641	0.3035
835.817	-0.34361
835.993	-1.66636
836.169	-1.52243
836.344	0.14995
836.52	-0.14435
836.696	-1.12768
836.872	-0.5387
837.048	0.27037
837.223	1.2454
837.399	0.8318
837.575	0.17991
837.75	-0.77382
837.926	-1.11786
838.102	-1.22939
838.277	-3.60595
838.453	-3.94931
838.628	-1.10468
838.804	0.60901
838.98	1.46426
839.155	-0.06885
839.331	-2.40232
839.506	-2.24402
839.682	-3.25619
839.857	1.77978
840.033	-1.20972
840.208	0.79529
840.384	-1.50552
840.559	-0.90024
840.734	-1.13353
840.91	1.17054
841.085	0.6723
841.26	-2.82313
841.436	-2.00061
841.611	0.99848
841.786	1.67663
841.962	-0.39002
842.137	0.67468
842.312	-3.94698
842.487	-0.92243
842.663	1.32334
842.838	-0.53898
843.013	-2.72865
843.188	4.74967
843.363	0.18313
843.538	0.17398
843.714	-3.44538
843.889	-1.64162
844.064	-5.23256
844.239	-3.76557
844.414	-0.14006
844.589	-2.85274
844.764	-2.05311
844.939	3.29011
845.114	7.56613
845.289	-2.08878
845.464	-5.0787
845.639	2.34598
845.814	-0.12223
845.989	-10.14377
846.163	-6.53404
846.338	-5.26875
846.513	-5.69972
846.688	-4.47297
846.863	0.52886
847.038	-6.61966
847.212	3.78033
847.387	3.26639
847.562	-1.72681
847.737	-4.87093
847.911	-5.3379
848.086	-2.04173
848.261	-5.4868
848.435	-0.48823
848.61	-2.48248
848.785	3.26386
848.959	-0.95401
849.134	-5.97757
849.308	3.11331
849.483	-4.87159
849.658	-6.05361
849.832	-1.26078
850.007	-2.62608
850.181	-4.98361
850.356	-6.20229
850.53	-5.94665
850.705	-3.21966
850.879	-7.38899
851.053	-3.68034
851.228	-8.0335
851.402	3.51194
851.577	-3.42171
851.751	-6.60083
851.925	5.73078
852.099	6.29336
852.274	-2.16774
852.448	0.56285
852.622	3.37662
852.797	-8.99104
852.971	1.91977
853.145	-0.72414
853.319	-5.60195
853.493	-3.77801
853.668	-2.17069
853.842	-8.50468
854.016	4.1054
854.19	1.38516
854.364	0.05019
854.538	2.36818
854.712	-3.31517
854.886	0.76502
855.06	-0.96271
855.234	2.28042
855.408	-12.08077
855.582	-5.47578
855.756	-1.3192
855.93	1.5003
856.104	-4.56466
856.278	-0.80699
856.452	2.67472
856.626	-13.15612
856.8	-1.95617
856.973	-14.85666
857.147	-7.39673
857.321	3.85072
857.495	-8.2786
857.669	2.93915
857.842	-1.97702
858.016	3.33995
858.19	1.19484
858.364	-1.18567
858.537	-1.35345
858.711	8.17564
858.885	-1.3425
859.058	7.63223
859.232	-0.04661
859.405	-3.88022
859.579	-0.60119
859.753	-0.90798
859.926	-0.12168
860.1	8.58572
860.273	1.20169
860.447	-1.14464
860.62	3.19611
860.794	-0.85778
860.967	-1.06938
861.141	4.34655
861.314	1.94082
861.487	-2.55069
861.661	-2.32829
861.834	6.17666
862.008	-1.63831
862.181	-2.14122
862.354	-0.24287
862.528	-3.29331
862.701	-0.02399
862.874	-3.33735
863.047	6.87179
863.221	1.74508
863.394	-3.29535
863.567	-5.85731
863.74	4.90252
863.913	6.03176
864.087	4.83707
864.26	5.12388
864.433	-5.474
864.606	6.35492
864.779	-5.84077
864.952	-4.09289
865.125	4.72806
865.298	1.77555
865.471	4.65514
865.644	-1.96194
865.817	-1.33594
865.99	2.11769
866.163	-2.22837
866.336	-5.47587
866.509	5.63721
866.682	-9.13125
866.855	-2.69334
867.028	-0.51737
867.2	4.24341
867.373	0.73279
867.546	-5.9798
867.719	-7.62626
867.892	4.32619
868.064	-1.7209
868.237	-5.95163
868.41	4.4493
868.583	-1.4006
868.755	-7.3655
868.928	-7.14302
869.101	0.1358
869.273	7.03738
869.446	-4.7401
869.619	-5.70319
869.791	-7.70836
869.964	1.57846
870.136	-6.17172
870.309	2.71363
870.481	-0.5198
870.654	-8.3256
870.826	-4.88273
870.999	-4.41662
871.171	3.69894
871.344	-3.6905
871.516	-0.70068
871.689	-0.26149
871.861	0.05723
872.033	4.11541
872.206	-2.61531
872.378	-5.51239
872.55	-8.39857
872.723	-8.95519
872.895	-5.14897
873.067	-4.21578
873.24	-7.43353
873.412	1.46013
873.584	-1.79636
873.756	-5.84942
873.928	-6.41141
874.101	-6.35727
874.273	2.22298
874.445	1.4595
874.617	3.08057
874.789	3.25791
874.961	0.53389
875.133	-5.06575
875.305	3.2322
875.477	5.15485
875.649	3.54736
875.821	-5.54762
875.993	1.96244
876.165	-1.71295
876.337	-0.8157
876.509	-7.90323
876.681	4.32693
876.853	2.30824
877.025	2.39195
877.197	-3.19238
877.369	3.71262
877.541	3.16328
877.712	2.47133
877.884	-3.55351
878.056	-2.90805
878.228	-2.64924
878.4	-1.90229
878.571	-4.33522
878.743	-0.30791
878.915	-2.23129
879.086	-0.24131
879.258	-0.07041
879.43	-1.92836
879.601	-1.51515
879.773	-1.1029
879.945	-1.63261
880.116	1.79385
880.288	0.5543
880.459	0.78367
880.631	-0.42219
880.802	-0.07633
880.974	-0.94843
881.145	-0.33716
881.317	-0.14781
881.488	-0.1814
881.66	-0.10941
881.831	-0.15362
882.002	0.29391
882.174	-0.11107
882.345	-0.0168
882.517	-0.15973
882.688	0.04194
882.859	-0.12692
883.03	0.0368
883.202	0.33695
883.373	-0.14824
883.544	-0.40767
883.715	-0.28065
883.887	0.55664
884.058	0.29008
884.229	-0.50449
884.4	-1.02916
884.571	0.53799
884.742	0.5093
884.914	-0.33451
885.085	1.08102
885.256	1.77284
885.427	1.43033
885.598	2.34469
885.769	-1.65221
885.94	0.53787
886.111	0.95253
886.282	0.29469
886.453	-2.85573
886.624	-3.87491
886.795	2.36486
886.966	-0.35013
887.136	1.05381
887.307	-8.33998
887.478	-1.89464
887.649	-1.91356
887.82	-1.22294
887.991	-8.67786
888.161	-1.01449
888.332	-1.90033
888.503	4.71219
888.674	-4.27927
888.844	1.68371
889.015	-0.04493
889.186	3.21233
889.356	4.36205
889.527	-0.86433
889.698	-0.89386
889.868	3.295
890.039	4.32281
890.209	0.0131
890.38	8.48843
890.551	-0.19015
890.721	6.69795
890.892	1.85538
891.062	0.13294
891.233	1.19127
891.403	1.24636
891.574	4.31735
891.744	-2.49133
891.914	-12.88402
892.085	3.95965
892.255	-5.91818
892.425	2.16032
892.596	-7.88667
892.766	1.59009
892.936	-1.00854
893.107	3.4205
893.277	-1.97573
893.447	4.92551
893.618	-0.61137
893.788	5.17618
893.958	-4.09922
894.128	0.01356
894.298	0.4317
894.468	-2.23078
894.639	0.83276
894.809	-2.20048
894.979	-0.66337
895.149	0.14053
895.319	0.98884
895.489	-0.26057
895.659	2.43051
895.829	-0.84202
895.999	0.08181
896.169	-2.64652
896.339	-2.56519
896.509	0.01367
896.679	-2.25064
896.849	3.44169
897.019	-1.47973
897.189	-4.76374
897.358	-6.94558
897.528	-1.60574
897.698	0.73702
897.868	-1.64225
898.038	10.96019
898.208	-0.11386
898.377	-3.91426
898.547	3.85434
898.717	-12.13064
898.886	4.20085
899.056	7.07784
899.226	3.90683
899.395	-14.37771
899.565	-0.4257
899.735	-5.91438
899.904	3.01597
900.074	5.87712
900.244	19.50747
900.413	-10.62784
900.583	4.55534
900.752	-21.70934
900.922	6.72275
901.091	13.94587
901.261	5.47825
901.43	-3.50317
901.599	-14.28849
901.769	-6.66461
901.938	5.61455
902.108	-12.28766
902.277	-6.56067
902.446	3.80078
902.616	-3.78991
902.785	-6.83916
902.954	-0.46958
903.124	-1.67471
903.293	-3.53584
903.462	-9.48009
903.631	-2.73151
903.801	-0.36827
903.97	2.34809
904.139	-3.00214
904.308	1.14226
904.477	-2.59505
904.646	-3.89528
904.816	0.26835
904.985	-0.53898
905.154	2.12255
