Data from WindowProjectSample3_Transmission__21__00021.txt Node

Date: Sun May 04 10:07:02 EDT 2025
User: jessi
Spectrometer: SR400872
Trigger mode: 0
Integration Time (sec): 5.000070E-1
Scans to average: 10
Electric dark correction enabled: true
Nonlinearity correction enabled: true
Boxcar width: 0
XAxis mode: Wavelengths
Number of Pixels in Spectrum: 3648
>>>>>Begin Spectral Data<<<<<
184.909	-0.39093
185.132	6.01286
185.355	2.81616
185.578	-2.34098
185.801	19.80003
186.024	0.34585
186.247	1.71232
186.47	9.14767
186.693	-66.19414
186.916	-52.77223
187.139	-0.40334
187.362	-3.97473
187.585	-1.80105
187.808	-4.38493
188.031	25.30789
188.254	-2.52196
188.476	-1.20297
188.699	5.76155
188.922	5.52856
189.145	-1.27714
189.368	15.44787
189.591	-5.35052
189.813	5.17382
190.036	-1.22882
190.259	-6.72104
190.482	2.1327
190.705	1.52668
190.927	-2.59192
191.15	-1.156
191.373	-0.31348
191.595	3.1068
191.818	-0.76714
192.041	-12.76539
192.263	4.56615
192.486	-13.491
192.709	0.50732
192.931	4.63474
193.154	0.44447
193.377	4.34685
193.599	-5.02297
193.822	-16.9138
194.044	6.18485
194.267	-7.74368
194.489	122.79076
194.712	-0.6885
194.934	1.18004
195.157	0.80107
195.379	6.55331
195.602	3.98505
195.824	-7.58229
196.047	-3.03161
196.269	0.237
196.492	4.76612
196.714	-0.62714
196.936	1.9225
197.159	-3.49735
197.381	2.55493
197.604	8.34469
197.826	-3.85802
198.048	-2.16701
198.271	-1.28858
198.493	2.37567
198.715	-6.45937
198.938	16.57818
199.16	-2.36324
199.382	-0.35962
199.604	-1.98801
199.827	10.07173
200.049	-2.97269
200.271	-4.4049
200.493	-0.23047
200.715	0.9077
200.938	4.25235
201.16	4.04892
201.382	5.39506
201.604	-0.42656
201.826	4.38621
202.048	-3.11683
202.27	1.98258
202.492	1.83178
202.715	3.26312
202.937	-1.0112
203.159	-0.37009
203.381	-4.49594
203.603	3.13923
203.825	-0.40746
204.047	0.48797
204.269	6.0672
204.491	2.8272
204.713	-3.58292
204.935	3.64646
205.156	-3.07067
205.378	1.17537
205.6	4.71635
205.822	0.6981
206.044	0.02348
206.266	-0.54998
206.488	-4.83099
206.71	-0.83435
206.932	3.0382
207.153	-1.52527
207.375	4.71458
207.597	3.73819
207.819	-2.10889
208.041	3.96143
208.262	-31.98394
208.484	11.74142
208.706	3.5845
208.927	6.79631
209.149	-0.57182
209.371	-2.94502
209.593	-1.97213
209.814	-0.80135
210.036	19.60523
210.258	8.82582
210.479	11.34703
210.701	-0.35608
210.922	3.83337
211.144	-1.47375
211.366	2.0703
211.587	2.93512
211.809	-1.19717
212.03	1.59731
212.252	-0.02148
212.473	14.08771
212.695	4.26298
212.916	3.47164
213.138	2.98789
213.359	1.23587
213.581	-3.31525
213.802	2.08089
214.024	-5.28132
214.245	-1.77796
214.466	-21.99056
214.688	4.13309
214.909	-2.35744
215.131	5.71626
215.352	-1.20168
215.573	3.17245
215.795	4.0023
216.016	-1.75563
216.237	-13.70829
216.459	8.0385
216.68	-5.5045
216.901	-3.6342
217.122	6.34478
217.344	-5.46009
217.565	2.75674
217.786	1.4388
218.007	-2.20276
218.228	8.58358
218.45	1.06565
218.671	4.34436
218.892	1.89186
219.113	-1.60094
219.334	-100.01259
219.555	-2.38261
219.776	3.06996
219.997	-2.05335
220.219	-0.39801
220.44	-0.25528
220.661	2.14705
220.882	3.19969
221.103	7.49045
221.324	-14.24662
221.545	1.82432
221.766	-1.83591
221.987	-12.07992
222.208	-13.30644
222.429	0.65264
222.65	-29.12865
222.87	-0.69671
223.091	12.07345
223.312	2.46786
223.533	-0.41538
223.754	-0.4851
223.975	2.37263
224.196	10.72908
224.417	-4.51914
224.637	-7.30247
224.858	45.36568
225.079	3.00786
225.3	2.36856
225.521	-0.61947
225.741	-14.00977
225.962	4.26622
226.183	-13.88794
226.404	2.45079
226.624	3.77881
226.845	0.51019
227.066	2.49159
227.286	-4.94837
227.507	-4.08628
227.728	-14.67173
227.948	-0.31169
228.169	-31.8246
228.389	9.60702
228.61	-0.14814
228.831	3.96264
229.051	-2.26822
229.272	0.73945
229.492	-1.62982
229.713	-0.27219
229.933	-2.28803
230.154	0.95796
230.374	2.78265
230.595	1.76317
230.815	-5.32681
231.036	-4.09369
231.256	-5.07024
231.477	9.94012
231.697	2.22053
231.917	5.05222
232.138	2.3095
232.358	6.34744
232.579	41.16758
232.799	-9.93942
233.019	-8.93374
233.24	12.6826
233.46	8.32872
233.68	-15.82593
233.901	-0.71827
234.121	-4.0236
234.341	1.6865
234.561	-1.91664
234.782	-3.70986
235.002	4.78965
235.222	-1.89903
235.442	-4.67109
235.662	1.90296
235.883	-5.07765
236.103	-0.80496
236.323	2.47195
236.543	3.20265
236.763	-1.90827
236.983	0.63428
237.203	-1.44909
237.423	-13.09867
237.643	-27.60246
237.864	-26.48498
238.084	8.0316
238.304	4.91183
238.524	-0.76305
238.744	-10.83914
238.964	1.23946
239.184	-6.20866
239.404	-2.9081
239.624	-2.27444
239.843	-5.31421
240.063	-4.30761
240.283	2.84371
240.503	0.064
240.723	-0.15624
240.943	-0.18989
241.163	1.26541
241.383	7.25351
241.603	-0.45821
241.822	0.7967
242.042	-0.33588
242.262	0.79088
242.482	0.22615
242.702	-0.22447
242.921	-0.54496
243.141	-0.37002
243.361	-0.25674
243.581	-0.81226
243.8	0.74486
244.02	0.02339
244.24	0.39196
244.459	0.22685
244.679	0.21059
244.899	-0.24611
245.118	0.35654
245.338	-1.25156
245.558	0.12989
245.777	0.20908
245.997	0.07056
246.216	0.05684
246.436	-0.2147
246.655	-0.55469
246.875	0.07821
247.094	-0.035
247.314	-0.12425
247.533	-0.15902
247.753	-0.42229
247.972	0.07034
248.192	-0.08499
248.411	-0.22906
248.631	-0.41303
248.85	0.09473
249.07	-0.44691
249.289	0.06911
249.508	-0.44117
249.728	-0.13927
249.947	0.03
250.166	0.09673
250.386	0.12842
250.605	0.41786
250.824	-0.51748
251.044	-0.31992
251.263	-0.50718
251.482	0.236
251.701	0.02991
251.921	-0.2781
252.14	-0.25185
252.359	0.35854
252.578	-0.49935
252.798	-0.53227
253.017	0.27319
253.236	-0.26618
253.455	0.21815
253.674	-0.43713
253.893	0.55244
254.112	0.88879
254.331	-0.8793
254.551	0.85894
254.77	0.35309
254.989	0.04028
255.208	0.53143
255.427	-1.01339
255.646	-1.54454
255.865	-0.03357
256.084	0.78175
256.303	-0.17317
256.522	0.22566
256.741	0.7055
256.96	-0.51483
257.179	-0.67963
257.397	-0.64755
257.616	-0.6391
257.835	-0.26538
258.054	-0.30961
258.273	-0.03442
258.492	0.21599
258.711	0.15692
258.93	-0.25124
259.148	-0.15587
259.367	-0.13279
259.586	-0.13145
259.805	-0.02788
260.023	-0.11732
260.242	0.04859
260.461	-0.24722
260.68	0.14277
260.898	-0.07771
261.117	-0.16562
261.336	0.08252
261.554	0.22266
261.773	-0.14673
261.992	-0.16802
262.21	0.06009
262.429	-0.28123
262.648	-0.05235
262.866	-0.00676
263.085	-0.39005
263.303	0.22846
263.522	0.26629
263.74	-0.01305
263.959	-0.38766
264.178	0.5269
264.396	0.08452
264.615	0.08114
264.833	0.65779
265.051	0.67412
265.27	-0.59168
265.488	0.29369
265.707	0.04901
265.925	0.02211
266.144	0.12226
266.362	0.11757
266.58	0.06422
266.799	-0.19646
267.017	-0.05631
267.235	0.10247
267.454	-0.46068
267.672	-0.47078
267.89	-0.16399
268.109	0.30981
268.327	-0.23107
268.545	0.22539
268.763	-0.25525
268.982	-0.00235
269.2	0.24243
269.418	0.33907
269.636	0.30693
269.854	0.35318
270.073	0.23468
270.291	-0.1769
270.509	-0.12767
270.727	0.03061
270.945	-0.24532
271.163	0.27719
271.381	0.30413
271.599	-0.17037
271.817	-0.01869
272.036	-0.04194
272.254	0.0541
272.472	-0.0764
272.69	-0.18872
272.908	-0.02857
273.126	-0.0578
273.344	0.0289
273.562	-0.14864
273.779	0.13862
273.997	-0.26991
274.215	0.20702
274.433	-0.10586
274.651	0.21548
274.869	-0.07437
275.087	0.22368
275.305	-0.31316
275.523	-0.13314
275.74	-0.04783
275.958	-0.11776
276.176	-0.16334
276.394	-0.00645
276.612	0.02858
276.829	0.44124
277.047	-0.06132
277.265	-0.46202
277.483	-0.62415
277.7	0.03206
277.918	-0.46524
278.136	-0.07331
278.353	-0.05351
278.571	0.0509
278.789	0.25551
279.006	0.19871
279.224	-0.16033
279.442	0.22713
279.659	-0.00738
279.877	-0.18622
280.094	0.11049
280.312	-0.23934
280.529	-0.53402
280.747	-0.0275
280.964	-0.52072
281.182	0.02214
281.399	-0.12909
281.617	0.02464
281.834	-0.041
282.052	0.01199
282.269	-0.19365
282.487	-0.19426
282.704	-0.09107
282.921	-0.01578
283.139	0.11964
283.356	-0.26452
283.574	0.15747
283.791	-0.07455
284.008	0.18316
284.226	0.03792
284.443	0.09523
284.66	-0.01808
284.877	0.40289
285.095	-0.05332
285.312	-0.14281
285.529	-0.09052
285.746	-0.01468
285.964	0.00089
286.181	0.14889
286.398	-0.04419
286.615	0.06117
286.832	-0.15456
287.05	0.02675
287.267	-0.12139
287.484	0.03661
287.701	-0.03351
287.918	-0.06359
288.135	-0.01312
288.352	-0.00677
288.569	-0.14728
288.786	0.22308
289.003	0.01356
289.22	0.04088
289.437	-0.09802
289.654	0.19002
289.871	0.10584
290.088	-0.09457
290.305	0.18848
290.522	0.13716
290.739	0.0056
290.956	0.00958
291.173	-0.00223
291.39	-0.00987
291.607	-0.07595
291.824	-0.23929
292.04	0.22067
292.257	0.12778
292.474	0.03347
292.691	-0.02408
292.908	-0.10102
293.125	-0.16166
293.341	0.01601
293.558	-0.05625
293.775	-0.12147
293.992	-0.07948
294.208	-0.20592
294.425	-0.04131
294.642	0.24039
294.858	0.28505
295.075	-0.08859
295.292	-0.03865
295.508	0.02705
295.725	-0.12899
295.942	-0.11665
296.158	0.00451
296.375	-0.06334
296.591	0.06107
296.808	0.0128
297.024	0.00011
297.241	-0.14269
297.458	-0.07057
297.674	-0.01104
297.891	-0.03226
298.107	-0.02232
298.323	-0.02706
298.54	-0.08938
298.756	-0.07356
298.973	0.03355
299.189	-0.22243
299.406	-0.06314
299.622	-0.02607
299.838	-0.08616
300.055	-0.16395
300.271	-0.02824
300.487	-0.10424
300.704	-0.1255
300.92	-0.13046
301.136	-0.17026
301.353	-0.04119
301.569	0.09191
301.785	-0.15007
302.001	-0.2245
302.218	-0.04799
302.434	-0.22846
302.65	-0.13443
302.866	-0.15544
303.083	-0.22339
303.299	-0.20896
303.515	-0.31688
303.731	-0.32227
303.947	-0.29124
304.163	-0.35123
304.379	-0.2634
304.595	-0.36897
304.812	-0.21333
305.028	-0.17715
305.244	-0.21886
305.46	-0.14266
305.676	-0.20357
305.892	-0.49078
306.108	-0.69726
306.324	-0.34781
306.54	-0.29851
306.756	-0.33763
306.972	-0.02599
307.187	-0.5826
307.403	-0.35312
307.619	-0.22409
307.835	-0.43607
308.051	-0.36678
308.267	-0.43151
308.483	-0.60918
308.699	-0.36266
308.914	-0.34054
309.13	-0.45235
309.346	-0.48275
309.562	-0.31828
309.778	-0.41665
309.993	-0.27031
310.209	-0.50207
310.425	-0.41917
310.641	-0.41596
310.856	-0.60066
311.072	-0.25856
311.288	-0.40457
311.503	-0.61545
311.719	-0.33178
311.935	-0.60755
312.15	-0.63052
312.366	-0.54003
312.581	-0.49002
312.797	-0.64322
313.013	-0.56673
313.228	-0.46141
313.444	-0.27714
313.659	-0.491
313.875	-0.55246
314.09	-0.57716
314.306	-0.10612
314.521	-0.54831
314.737	-0.44307
314.952	-0.40126
315.168	-0.6005
315.383	-0.58479
315.599	-0.32791
315.814	-0.53655
316.029	-0.64029
316.245	-0.70983
316.46	-0.25369
316.675	-0.21231
316.891	-0.29136
317.106	-0.61162
317.321	-0.38272
317.537	-0.49105
317.752	-0.8354
317.967	-0.73219
318.183	-0.39957
318.398	-0.51436
318.613	-0.73324
318.828	-0.49088
319.043	-0.37617
319.259	-0.80021
319.474	-0.43224
319.689	-0.54058
319.904	-0.42772
320.119	-0.91215
320.334	-0.37125
320.549	-0.54033
320.765	-0.38784
320.98	-0.72968
321.195	-0.24924
321.41	-0.36458
321.625	-0.49926
321.84	-0.40503
322.055	-0.53968
322.27	-0.691
322.485	-0.4548
322.7	-0.77717
322.915	-0.32635
323.13	-0.87564
323.345	-0.93756
323.56	-0.60311
323.775	-0.38531
323.989	-0.59876
324.204	-0.62892
324.419	-0.44657
324.634	-0.65561
324.849	-0.6579
325.064	-0.80874
325.279	-0.65358
325.493	-0.66906
325.708	-0.61846
325.923	-0.84128
326.138	-0.99539
326.352	-0.65538
326.567	-0.63322
326.782	-0.72362
326.997	-0.85907
327.211	-0.81406
327.426	-0.37703
327.641	-0.94862
327.855	-0.65822
328.07	-0.90564
328.285	-1.01866
328.499	-0.57381
328.714	-0.56663
328.928	-0.48724
329.143	-0.91061
329.358	-0.92755
329.572	-0.67526
329.787	-0.97678
330.001	-0.81592
330.216	-0.4353
330.43	-0.94951
330.645	-0.54156
330.859	-0.60557
331.074	-0.65127
331.288	-0.7556
331.503	-1.10113
331.717	-0.56657
331.931	-0.87538
332.146	-1.15658
332.36	-1.0215
332.575	-0.62258
332.789	-0.58837
333.003	-0.98917
333.218	-0.79552
333.432	-0.75535
333.646	-1.10096
333.86	-1.42747
334.075	-0.78567
334.289	-0.9759
334.503	-0.7088
334.717	-1.29563
334.932	-0.65465
335.146	-0.53977
335.36	-0.60199
335.574	-0.75319
335.788	-0.95756
336.003	-0.74476
336.217	-1.28898
336.431	-0.73461
336.645	-1.12512
336.859	-1.07558
337.073	-1.17498
337.287	-1.00666
337.501	-0.65101
337.715	-0.88908
337.929	-0.89843
338.143	-0.87223
338.357	-0.83691
338.571	-1.1844
338.785	-1.29087
338.999	-0.77877
339.213	-1.08155
339.427	-1.22934
339.641	-0.96181
339.855	-0.70904
340.069	-0.7566
340.283	-0.89012
340.497	-1.00218
340.711	-1.32346
340.924	-1.35896
341.138	-1.2586
341.352	-0.93336
341.566	-1.02129
341.78	-1.37584
341.993	-0.86123
342.207	-1.45618
342.421	-1.29623
342.635	-1.17279
342.848	-1.05823
343.062	-0.90771
343.276	-1.16086
343.49	-0.69233
343.703	-1.04026
343.917	-1.28121
344.131	-1.11786
344.344	-1.01087
344.558	-1.1667
344.771	-0.71197
344.985	-1.12349
345.199	-1.12825
345.412	-1.0932
345.626	-1.31991
345.839	-1.01109
346.053	-1.06058
346.266	-1.22776
346.48	-1.00672
346.693	-1.15261
346.907	-1.08279
347.12	-1.12185
347.334	-0.95124
347.547	-1.16798
347.76	-1.32601
347.974	-1.03546
348.187	-1.07605
348.401	-1.54857
348.614	-0.81631
348.827	-1.33554
349.041	-1.11747
349.254	-1.09549
349.467	-1.18459
349.681	-1.3127
349.894	-1.07656
350.107	-1.21068
350.32	-1.45808
350.534	-1.19362
350.747	-1.48614
350.96	-1.29099
351.173	-1.09876
351.386	-1.0566
351.6	-1.02443
351.813	-1.57483
352.026	-1.06498
352.239	-1.40379
352.452	-1.11002
352.665	-1.69746
352.878	-1.23545
353.092	-1.4411
353.305	-1.47306
353.518	-1.14528
353.731	-0.95097
353.944	-1.18191
354.157	-1.54151
354.37	-1.59876
354.583	-1.14475
354.796	-1.55047
355.009	-1.50029
355.222	-1.54749
355.435	-1.49733
355.647	-1.44301
355.86	-1.6342
356.073	-1.70049
356.286	-1.35717
356.499	-1.6065
356.712	-1.78623
356.925	-1.52488
357.138	-1.60671
357.35	-1.60206
357.563	-1.68157
357.776	-1.51923
357.989	-1.99633
358.201	-1.58365
358.414	-1.7846
358.627	-1.69597
358.84	-1.74163
359.052	-1.31354
359.265	-1.64141
359.478	-1.30446
359.69	-1.65149
359.903	-1.82203
360.116	-1.79924
360.328	-1.5872
360.541	-1.61131
360.753	-1.97152
360.966	-1.97043
361.179	-1.96731
361.391	-1.86266
361.604	-1.92862
361.816	-1.84614
362.029	-2.07937
362.241	-1.84497
362.454	-2.06521
362.666	-1.81823
362.879	-2.18493
363.091	-1.79619
363.304	-2.07257
363.516	-1.45218
363.728	-1.85806
363.941	-1.84698
364.153	-2.33479
364.366	-1.89465
364.578	-1.66249
364.79	-1.75948
365.003	-2.02079
365.215	-1.56514
365.427	-1.82442
365.639	-1.61767
365.852	-1.7351
366.064	-1.49077
366.276	-1.82848
366.488	-1.60456
366.701	-1.74592
366.913	-1.59479
367.125	-1.8575
367.337	-1.62254
367.549	-1.69057
367.762	-1.50839
367.974	-1.64957
368.186	-1.9703
368.398	-1.49422
368.61	-1.53833
368.822	-1.72279
369.034	-1.38172
369.246	-1.66332
369.458	-2.11604
369.67	-1.79032
369.882	-1.73684
370.094	-1.43094
370.306	-1.51436
370.518	-1.45665
370.73	-1.81366
370.942	-1.87959
371.154	-1.85397
371.366	-1.95219
371.578	-2.0319
371.79	-2.28659
372.002	-1.69239
372.214	-2.09505
372.425	-1.49138
372.637	-2.21917
372.849	-2.05479
373.061	-1.66265
373.273	-1.88981
373.484	-1.75591
373.696	-2.04
373.908	-1.52455
374.12	-1.86183
374.331	-1.90253
374.543	-1.72635
374.755	-1.79081
374.967	-1.69641
375.178	-2.13855
375.39	-1.80532
375.602	-1.93709
375.813	-1.61369
376.025	-1.87492
376.236	-1.9649
376.448	-1.79735
376.66	-2.14956
376.871	-1.95995
377.083	-1.77007
377.294	-2.45863
377.506	-1.94177
377.717	-1.91479
377.929	-1.88212
378.14	-2.16842
378.352	-1.90184
378.563	-2.30554
378.775	-2.0414
378.986	-1.70259
379.197	-2.01444
379.409	-1.5028
379.62	-1.79861
379.832	-1.83579
380.043	-1.9812
380.254	-2.07355
380.466	-1.85183
380.677	-1.88504
380.888	-1.84732
381.1	-2.11929
381.311	-2.44057
381.522	-2.16075
381.733	-2.09896
381.945	-2.06758
382.156	-1.67024
382.367	-1.98977
382.578	-2.09577
382.789	-2.1525
383.001	-1.71861
383.212	-2.32286
383.423	-2.11682
383.634	-1.88278
383.845	-2.15251
384.056	-1.85706
384.267	-2.14535
384.478	-2.0906
384.69	-2.05173
384.901	-1.94389
385.112	-1.89711
385.323	-2.46444
385.534	-1.96886
385.745	-2.06087
385.956	-1.98171
386.167	-2.11313
386.378	-2.07238
386.588	-2.42149
386.799	-1.83322
387.01	-2.10221
387.221	-1.99842
387.432	-2.11895
387.643	-1.8985
387.854	-1.72552
388.065	-2.07238
388.275	-2.01355
388.486	-1.96198
388.697	-2.14413
388.908	-1.94828
389.119	-2.05048
389.329	-2.06619
389.54	-1.92798
389.751	-2.06325
389.962	-2.0678
390.172	-1.72975
390.383	-2.18296
390.594	-1.95051
390.804	-2.04153
391.015	-2.15925
391.226	-1.99629
391.436	-2.23871
391.647	-2.12694
391.858	-2.04888
392.068	-2.0078
392.279	-2.19685
392.489	-2.38666
392.7	-1.97405
392.91	-2.15513
393.121	-2.08481
393.331	-2.02906
393.542	-2.1351
393.752	-2.32522
393.963	-2.27198
394.173	-2.3513
394.384	-2.15609
394.594	-2.19271
394.804	-2.07078
395.015	-1.89412
395.225	-2.31123
395.436	-2.03758
395.646	-2.03167
395.856	-2.33859
396.067	-1.84648
396.277	-1.87787
396.487	-2.04065
396.697	-2.29403
396.908	-2.22693
397.118	-1.80087
397.328	-1.96367
397.538	-1.96398
397.749	-2.02518
397.959	-2.13839
398.169	-1.9971
398.379	-1.85522
398.589	-1.88624
398.8	-2.26517
399.01	-2.24227
399.22	-1.76869
399.43	-2.11695
399.64	-2.26511
399.85	-1.93989
400.06	-2.33381
400.27	-2.09808
400.48	-1.77923
400.69	-1.90634
400.9	-1.87425
401.11	-1.92501
401.32	-2.05677
401.53	-2.07725
401.74	-1.99932
401.95	-1.86179
402.16	-2.30572
402.37	-2.12333
402.58	-1.99738
402.79	-2.05857
403	-1.92291
403.209	-1.88989
403.419	-2.17853
403.629	-2.02351
403.839	-2.30657
404.049	-2.13117
404.258	-2.14849
404.468	-2.26166
404.678	-2.13949
404.888	-2.45312
405.097	-2.47572
405.307	-1.97465
405.517	-2.32534
405.727	-2.28643
405.936	-2.06413
406.146	-2.12844
406.356	-2.16698
406.565	-2.09199
406.775	-2.01865
406.984	-2.13589
407.194	-2.23297
407.404	-2.11202
407.613	-2.08395
407.823	-2.15325
408.032	-2.08762
408.242	-2.06196
408.451	-1.94558
408.661	-2.25904
408.87	-2.04673
409.08	-2.09289
409.289	-1.87327
409.499	-2.20566
409.708	-1.8756
409.918	-1.96663
410.127	-2.19089
410.336	-2.23513
410.546	-2.11126
410.755	-2.13599
410.964	-1.98335
411.174	-1.93212
411.383	-1.99472
411.592	-2.06935
411.802	-2.04322
412.011	-2.1173
412.22	-1.97308
412.429	-2.19526
412.639	-2.37833
412.848	-2.06543
413.057	-2.20642
413.266	-2.04015
413.475	-2.23711
413.685	-2.13596
413.894	-2.30199
414.103	-2.01773
414.312	-2.02156
414.521	-1.99627
414.73	-2.03039
414.939	-2.25214
415.148	-2.18488
415.357	-2.28014
415.566	-2.24308
415.776	-2.42083
415.985	-2.31909
416.194	-2.21855
416.403	-2.43314
416.611	-2.30532
416.82	-2.36718
417.029	-2.51117
417.238	-2.4546
417.447	-2.46257
417.656	-2.61696
417.865	-2.53764
418.074	-2.62919
418.283	-2.66696
418.492	-3.087
418.7	-3.00705
418.909	-3.35575
419.118	-3.08345
419.327	-3.21004
419.536	-3.25454
419.744	-3.57203
419.953	-3.69089
420.162	-3.76328
420.371	-3.94847
420.579	-4.25323
420.788	-4.12807
420.997	-4.48831
421.205	-4.25498
421.414	-4.4581
421.623	-4.85807
421.831	-4.31544
422.04	-4.18461
422.249	-4.17307
422.457	-4.02476
422.666	-3.97698
422.874	-3.91443
423.083	-3.93349
423.291	-4.14542
423.5	-4.3986
423.708	-4.28989
423.917	-4.53423
424.125	-4.25599
424.334	-4.30703
424.542	-4.4293
424.751	-4.4985
424.959	-4.21955
425.167	-4.38626
425.376	-4.30493
425.584	-3.87484
425.793	-3.71043
426.001	-3.51911
426.209	-3.46501
426.418	-3.27193
426.626	-2.80798
426.834	-2.89426
427.042	-2.78109
427.251	-2.61142
427.459	-2.73888
427.667	-2.62372
427.875	-2.64128
428.084	-2.65714
428.292	-2.54825
428.5	-2.75733
428.708	-2.34483
428.916	-2.59714
429.124	-2.65017
429.333	-2.64657
429.541	-2.73636
429.749	-2.52266
429.957	-2.73926
430.165	-2.79498
430.373	-2.42133
430.581	-2.51902
430.789	-2.79518
430.997	-2.83279
431.205	-2.49222
431.413	-2.70753
431.621	-2.69283
431.829	-2.69401
432.037	-2.82025
432.245	-3.01082
432.453	-2.93496
432.661	-2.84233
432.869	-2.79005
433.076	-2.96587
433.284	-2.85987
433.492	-3.1502
433.7	-3.0211
433.908	-3.17992
434.116	-2.9562
434.323	-2.99741
434.531	-2.93138
434.739	-2.9997
434.947	-2.65133
435.154	-3.04464
435.362	-2.80112
435.57	-2.696
435.778	-2.61947
435.985	-2.78454
436.193	-2.68108
436.401	-2.87605
436.608	-2.91417
436.816	-2.74621
437.023	-2.7246
437.231	-3.0406
437.439	-2.9112
437.646	-3.02026
437.854	-2.90778
438.061	-2.90355
438.269	-3.05479
438.476	-2.94222
438.684	-3.03835
438.891	-3.07686
439.099	-3.3304
439.306	-3.30655
439.514	-3.20239
439.721	-3.61624
439.929	-3.62894
440.136	-3.71974
440.343	-3.82787
440.551	-3.84808
440.758	-3.99965
440.965	-3.65957
441.173	-3.68381
441.38	-3.84295
441.587	-3.42552
441.795	-3.56649
442.002	-3.23154
442.209	-3.12514
442.416	-3.01669
442.624	-2.93849
442.831	-3.11309
443.038	-3.12895
443.245	-3.01577
443.452	-3.01446
443.66	-2.9555
443.867	-3.09853
444.074	-2.86729
444.281	-3.06932
444.488	-3.05894
444.695	-3.37491
444.902	-3.43107
445.109	-3.83727
445.316	-4.02277
445.523	-4.23405
445.73	-4.24653
445.937	-4.50784
446.144	-4.54458
446.351	-4.65936
446.558	-4.581
446.765	-4.93894
446.972	-4.44356
447.179	-4.53667
447.386	-4.39758
447.593	-4.09624
447.8	-4.18528
448.007	-3.89058
448.214	-3.43445
448.42	-3.41661
448.627	-3.28859
448.834	-3.20997
449.041	-3.0313
449.248	-3.03924
449.454	-3.03316
449.661	-3.23879
449.868	-2.96034
450.075	-2.97573
450.281	-2.89542
450.488	-2.97821
450.695	-2.86563
450.901	-2.90338
451.108	-2.89111
451.315	-2.98324
451.521	-2.79633
451.728	-3.08834
451.935	-3.0349
452.141	-3.04287
452.348	-3.03913
452.554	-3.05372
452.761	-3.04753
452.967	-3.08783
453.174	-3.14367
453.38	-2.99072
453.587	-2.98771
453.793	-2.97964
454	-2.80735
454.206	-3.07692
454.413	-2.78684
454.619	-2.94241
454.825	-3.01967
455.032	-2.97516
455.238	-3.07088
455.445	-2.91724
455.651	-2.96462
455.857	-2.9303
456.064	-2.94583
456.27	-3.00103
456.476	-2.84355
456.682	-2.77943
456.889	-2.93075
457.095	-2.94538
457.301	-3.08351
457.507	-3.01011
457.714	-3.12096
457.92	-3.08375
458.126	-3.06811
458.332	-3.22315
458.538	-3.28606
458.744	-3.48774
458.951	-3.56572
459.157	-4.13295
459.363	-4.13211
459.569	-4.43537
459.775	-4.49419
459.981	-4.64091
460.187	-4.72685
460.393	-4.52628
460.599	-4.2192
460.805	-3.78572
461.011	-3.71426
461.217	-3.36644
461.423	-3.26236
461.629	-3.29065
461.835	-3.16196
462.041	-3.09999
462.247	-3.26105
462.453	-2.99532
462.658	-2.93361
462.864	-3.11733
463.07	-2.93845
463.276	-3.0673
463.482	-2.89065
463.688	-3.12236
463.893	-2.81341
464.099	-3.10152
464.305	-3.12162
464.511	-3.07231
464.716	-2.94643
464.922	-3.07334
465.128	-3.01796
465.333	-2.99098
465.539	-3.29153
465.745	-3.12467
465.95	-3.1875
466.156	-3.27448
466.362	-3.24089
466.567	-3.24045
466.773	-3.09773
466.978	-3.10435
467.184	-3.08605
467.389	-3.16136
467.595	-2.8921
467.8	-3.13253
468.006	-3.1977
468.211	-3.17149
468.417	-2.97492
468.622	-3.10808
468.828	-2.92653
469.033	-3.21909
469.239	-3.10614
469.444	-2.93539
469.649	-2.9412
469.855	-3.24755
470.06	-3.02046
470.266	-3.05137
470.471	-3.09248
470.676	-3.10729
470.881	-3.00421
471.087	-3.32843
471.292	-3.11115
471.497	-3.08376
471.703	-3.17759
471.908	-3.07647
472.113	-3.25916
472.318	-2.95371
472.523	-3.035
472.729	-3.12002
472.934	-3.15786
473.139	-3.15864
473.344	-3.07774
473.549	-3.33444
473.754	-3.11346
473.959	-3.19773
474.164	-3.38385
474.369	-3.04361
474.575	-3.12764
474.78	-3.11499
474.985	-3.106
475.19	-2.95571
475.395	-3.1444
475.6	-3.09845
475.804	-3.44127
476.009	-3.34315
476.214	-3.10625
476.419	-3.16918
476.624	-3.36384
476.829	-3.27959
477.034	-3.35133
477.239	-3.399
477.444	-3.34541
477.648	-3.42739
477.853	-3.28824
478.058	-3.31976
478.263	-3.29715
478.468	-3.33045
478.672	-3.38917
478.877	-3.56143
479.082	-3.34803
479.287	-3.4277
479.491	-3.45305
479.696	-3.48424
479.901	-3.4907
480.105	-3.50203
480.31	-3.42552
480.515	-3.51402
480.719	-3.60928
480.924	-3.48565
481.128	-3.50466
481.333	-3.64645
481.538	-3.91968
481.742	-4.247
481.947	-4.65638
482.151	-5.19459
482.356	-5.98977
482.56	-6.99486
482.765	-8.00388
482.969	-10.14298
483.174	-11.47972
483.378	-13.40678
483.582	-14.20995
483.787	-14.79148
483.991	-15.17561
484.196	-14.9864
484.4	-14.26695
484.604	-13.93886
484.809	-12.46757
485.013	-10.97049
485.217	-9.63863
485.422	-8.46369
485.626	-7.30753
485.83	-7.0951
486.034	-7.00996
486.239	-7.4072
486.443	-7.96076
486.647	-8.35523
486.851	-9.00486
487.055	-9.92095
487.26	-10.01256
487.464	-10.63533
487.668	-10.42005
487.872	-10.83373
488.076	-10.42148
488.28	-9.65362
488.484	-8.92698
488.688	-8.56375
488.892	-7.59698
489.096	-7.01381
489.3	-6.31621
489.504	-5.8869
489.708	-5.54075
489.912	-5.37893
490.116	-5.33177
490.32	-5.66212
490.524	-6.25946
490.728	-6.81019
490.932	-7.3377
491.136	-8.20689
491.34	-8.4494
491.544	-8.75987
491.748	-8.87919
491.951	-8.5323
492.155	-8.23766
492.359	-7.6982
492.563	-6.88352
492.767	-6.19166
492.97	-5.42063
493.174	-4.68947
493.378	-4.12831
493.582	-3.79184
493.785	-3.42506
493.989	-3.56192
494.193	-3.45048
494.396	-3.46882
494.6	-3.59928
494.804	-3.45967
495.007	-3.66045
495.211	-3.62492
495.414	-3.49021
495.618	-3.68393
495.822	-3.595
496.025	-3.73631
496.229	-3.73216
496.432	-3.90482
496.636	-3.8862
496.839	-3.95806
497.043	-3.88784
497.246	-3.89262
497.45	-3.81158
497.653	-4.0545
497.856	-3.8175
498.06	-3.83015
498.263	-3.75371
498.467	-3.82383
498.67	-3.5589
498.873	-3.66117
499.077	-3.64101
499.28	-3.95111
499.483	-3.6008
499.686	-3.80943
499.89	-3.5394
500.093	-3.52742
500.296	-3.61905
500.499	-3.61086
500.703	-3.49715
500.906	-3.58599
501.109	-3.55444
501.312	-3.63234
501.515	-3.61021
501.719	-3.69802
501.922	-3.55832
502.125	-3.47507
502.328	-3.69141
502.531	-3.48344
502.734	-3.67435
502.937	-3.52094
503.14	-3.66286
503.343	-3.62591
503.546	-3.78884
503.749	-3.51598
503.952	-3.68758
504.155	-3.54138
504.358	-3.63082
504.561	-3.68937
504.764	-3.54307
504.967	-3.71981
505.17	-3.57059
505.373	-3.58109
505.576	-3.47778
505.778	-3.51632
505.981	-3.47635
506.184	-3.79459
506.387	-3.60047
506.59	-3.53181
506.793	-3.79325
506.995	-3.60413
507.198	-3.64369
507.401	-3.83527
507.604	-3.7656
507.806	-3.64888
508.009	-3.68711
508.212	-3.74175
508.414	-3.71185
508.617	-3.81517
508.82	-3.86957
509.022	-3.92556
509.225	-3.76318
509.427	-3.893
509.63	-3.97419
509.833	-3.97807
510.035	-3.74633
510.238	-3.88204
510.44	-3.95111
510.643	-3.82055
510.845	-3.80732
511.048	-3.8041
511.25	-3.79308
511.453	-3.75252
511.655	-3.7864
511.858	-3.78965
512.06	-3.92666
512.262	-3.81935
512.465	-4.03733
512.667	-4.12533
512.869	-3.59675
513.072	-3.80802
513.274	-3.74201
513.476	-3.87315
513.679	-3.82749
513.881	-3.83728
514.083	-3.62215
514.286	-3.75612
514.488	-3.58861
514.69	-3.58905
514.892	-3.59168
515.094	-4.1541
515.297	-3.52162
515.499	-3.56559
515.701	-3.58916
515.903	-3.91453
516.105	-3.86898
516.307	-3.9081
516.509	-3.87182
516.711	-3.73003
516.913	-3.78807
517.116	-3.94461
517.318	-3.88994
517.52	-4.0233
517.722	-4.16248
517.924	-4.21751
518.126	-4.41777
518.328	-4.42594
518.529	-4.56203
518.731	-4.56124
518.933	-4.49303
519.135	-4.30303
519.337	-4.31429
519.539	-4.18411
519.741	-3.84083
519.943	-3.85699
520.145	-3.87106
520.346	-4.07299
520.548	-3.98191
520.75	-3.92009
520.952	-3.91814
521.153	-4.08061
521.355	-3.88951
521.557	-3.72641
521.759	-3.68913
521.96	-3.75778
522.162	-3.66721
522.364	-3.83584
522.565	-3.80751
522.767	-3.93518
522.969	-3.77213
523.17	-3.84512
523.372	-3.72483
523.573	-3.99241
523.775	-3.97633
523.977	-3.83116
524.178	-3.89205
524.38	-3.93001
524.581	-4.06691
524.783	-4.09013
524.984	-4.29625
525.186	-4.48148
525.387	-4.7188
525.589	-4.93035
525.79	-4.88799
525.991	-4.96989
526.193	-5.1239
526.394	-5.19656
526.596	-5.17975
526.797	-5.6731
526.998	-5.49406
527.2	-6.09917
527.401	-7.00735
527.602	-8.11008
527.803	-9.30435
528.005	-10.43611
528.206	-11.23603
528.407	-11.82016
528.608	-11.83962
528.81	-12.15177
529.011	-11.60838
529.212	-11.45871
529.413	-10.49569
529.614	-9.4451
529.815	-8.48137
530.017	-7.60742
530.218	-6.32843
530.419	-5.70337
530.62	-5.52975
530.821	-5.09233
531.022	-4.54567
531.223	-4.89159
531.424	-4.88486
531.625	-5.0187
531.826	-5.01971
532.027	-5.44857
532.228	-6.00142
532.429	-6.47116
532.63	-7.00451
532.831	-7.45858
533.032	-7.31194
533.233	-7.89041
533.433	-7.43891
533.634	-7.52107
533.835	-7.19754
534.036	-6.86038
534.237	-6.1239
534.438	-5.6486
534.638	-5.01162
534.839	-4.6062
535.04	-4.35547
535.241	-4.36902
535.441	-4.42507
535.642	-4.42019
535.843	-4.77679
536.043	-4.78977
536.244	-4.90296
536.445	-5.02305
536.645	-5.0729
536.846	-5.27527
537.047	-4.96687
537.247	-4.69662
537.448	-4.41711
537.648	-4.27816
537.849	-4.09416
538.049	-4.22011
538.25	-4.1059
538.451	-4.20181
538.651	-3.86466
538.851	-3.93738
539.052	-4.15574
539.252	-4.14898
539.453	-3.87436
539.653	-4.33235
539.854	-4.1762
540.054	-4.92095
540.254	-5.46047
540.455	-6.33602
540.655	-6.99188
540.855	-7.79476
541.056	-8.42932
541.256	-8.33832
541.456	-8.42469
541.657	-8.39527
541.857	-8.35998
542.057	-7.83514
542.257	-7.20206
542.458	-7.10823
542.658	-6.3011
542.858	-5.89549
543.058	-5.5244
543.258	-5.15212
543.458	-4.50095
543.659	-4.53072
543.859	-4.50644
544.059	-4.26286
544.259	-4.14949
544.459	-4.36974
544.659	-4.1873
544.859	-4.03112
545.059	-4.18476
545.259	-4.08783
545.459	-4.18832
545.659	-4.2613
545.859	-4.0022
546.059	-4.05398
546.259	-4.11693
546.459	-4.30057
546.659	-4.08401
546.859	-4.25783
547.059	-4.20867
547.258	-4.01836
547.458	-4.20068
547.658	-4.11974
547.858	-4.0103
548.058	-4.16318
548.258	-3.81511
548.457	-3.77357
548.657	-3.7483
548.857	-3.8428
549.057	-3.646
549.256	-3.91149
549.456	-3.39552
549.656	-3.56749
549.855	-3.66044
550.055	-3.37497
550.255	-3.72933
550.454	-3.59315
550.654	-3.28538
550.853	-3.59916
551.053	-3.54294
551.253	-3.6477
551.452	-3.37352
551.652	-3.4747
551.851	-3.8831
552.051	-3.80333
552.25	-3.64929
552.45	-3.62348
552.649	-3.72303
552.849	-3.64131
553.048	-3.48955
553.248	-3.8032
553.447	-3.80669
553.646	-3.65281
553.846	-3.6554
554.045	-3.56133
554.244	-3.33408
554.444	-3.61745
554.643	-3.4016
554.842	-3.50737
555.042	-3.56994
555.241	-3.39939
555.44	-3.29635
555.64	-3.6884
555.839	-3.75197
556.038	-3.4187
556.237	-3.06729
556.436	-3.80593
556.636	-3.37852
556.835	-3.44171
557.034	-3.44695
557.233	-3.37522
557.432	-3.42587
557.631	-3.29602
557.83	-3.47059
558.029	-3.29821
558.228	-3.03977
558.427	-3.53161
558.626	-3.45073
558.825	-3.22228
559.024	-3.11612
559.223	-3.45726
559.422	-3.26161
559.621	-3.19582
559.82	-3.32737
560.019	-3.43569
560.218	-3.56457
560.417	-3.36172
560.616	-3.28143
560.815	-3.70723
561.014	-3.44133
561.212	-3.83957
561.411	-3.32923
561.61	-3.2158
561.809	-3.22484
562.008	-3.57368
562.206	-3.27244
562.405	-3.55002
562.604	-3.44863
562.803	-3.32647
563.001	-3.15208
563.2	-3.48162
563.399	-3.27218
563.597	-3.30202
563.796	-3.08546
563.995	-3.42376
564.193	-3.55493
564.392	-3.51431
564.59	-3.46505
564.789	-3.32427
564.988	-3.32346
565.186	-3.41413
565.385	-3.56145
565.583	-3.81693
565.782	-3.49116
565.98	-3.661
566.179	-3.74708
566.377	-3.70852
566.575	-3.79433
566.774	-3.87835
566.972	-3.69853
567.171	-3.84152
567.369	-3.62809
567.567	-3.46967
567.766	-3.23838
567.964	-3.51418
568.162	-3.24963
568.361	-3.33445
568.559	-3.42945
568.757	-3.76314
568.956	-3.27808
569.154	-3.33605
569.352	-3.18984
569.55	-3.23414
569.748	-3.49781
569.947	-3.43361
570.145	-3.23712
570.343	-3.43603
570.541	-3.37176
570.739	-3.51494
570.937	-3.44547
571.135	-3.74248
571.333	-3.93263
571.532	-3.61988
571.73	-3.59433
571.928	-3.73227
572.126	-3.60475
572.324	-3.47424
572.522	-3.80573
572.72	-3.88955
572.918	-3.59393
573.116	-3.59514
573.313	-3.40018
573.511	-3.77326
573.709	-3.20552
573.907	-3.84675
574.105	-3.38548
574.303	-3.40523
574.501	-3.42431
574.699	-3.78801
574.896	-3.74203
575.094	-3.56222
575.292	-3.50472
575.49	-3.41913
575.688	-3.18386
575.885	-3.51199
576.083	-3.76854
576.281	-3.37869
576.478	-3.20397
576.676	-3.21862
576.874	-2.85462
577.071	-3.26786
577.269	-3.47481
577.467	-3.09236
577.664	-3.06384
577.862	-3.56515
578.059	-2.86733
578.257	-3.27718
578.455	-2.76378
578.652	-3.32304
578.85	-2.82741
579.047	-3.02724
579.245	-3.15553
579.442	-3.0253
579.64	-3.10254
579.837	-3.10677
580.034	-3.59638
580.232	-3.42414
580.429	-3.26369
580.627	-2.83931
580.824	-3.17097
581.021	-3.01188
581.219	-3.02783
581.416	-3.03244
581.613	-3.2103
581.811	-3.37306
582.008	-2.82658
582.205	-3.22565
582.402	-2.94297
582.6	-3.18467
582.797	-2.59348
582.994	-2.77707
583.191	-3.21433
583.388	-2.85264
583.586	-2.99972
583.783	-2.99487
583.98	-3.00154
584.177	-2.92094
584.374	-2.93039
584.571	-2.89398
584.768	-3.21996
584.965	-2.89884
585.162	-2.99902
585.359	-3.05295
585.556	-2.98737
585.753	-2.89328
585.95	-3.26557
586.147	-2.77664
586.344	-2.73318
586.541	-3.03692
586.738	-2.70594
586.935	-2.98973
587.132	-3.01444
587.329	-3.07795
587.526	-3.13642
587.722	-3.25571
587.919	-3.00925
588.116	-3.07157
588.313	-2.86939
588.51	-3.02537
588.706	-2.82729
588.903	-3.1646
589.1	-3.26267
589.297	-2.73738
589.493	-3.19324
589.69	-3.15293
589.887	-2.95689
590.083	-3.35286
590.28	-2.98557
590.477	-2.94071
590.673	-3.41515
590.87	-3.30807
591.067	-2.93413
591.263	-3.0149
591.46	-2.94738
591.656	-2.8636
591.853	-2.84879
592.049	-2.91609
592.246	-2.9983
592.442	-3.12061
592.639	-3.00037
592.835	-2.90611
593.032	-3.00509
593.228	-2.9921
593.425	-3.02377
593.621	-2.65391
593.817	-3.09031
594.014	-2.74428
594.21	-2.89771
594.406	-3.29928
594.603	-3.23734
594.799	-3.11688
594.995	-3.00845
595.192	-3.35982
595.388	-3.4987
595.584	-3.27306
595.78	-3.02673
595.977	-3.074
596.173	-3.25048
596.369	-3.13067
596.565	-3.02935
596.761	-3.06332
596.957	-3.15986
597.154	-3.37067
597.35	-3.10652
597.546	-3.34613
597.742	-3.20386
597.938	-2.97094
598.134	-3.17751
598.33	-3.25344
598.526	-3.1301
598.722	-2.81125
598.918	-3.11201
599.114	-2.74403
599.31	-2.39832
599.506	-2.8493
599.702	-2.78518
599.898	-2.93525
600.094	-2.69419
600.29	-3.21204
600.485	-2.91119
600.681	-2.05121
600.877	-3.42153
601.073	-2.84289
601.269	-2.71988
601.465	-2.46655
601.66	-2.88663
601.856	-2.72537
602.052	-2.87933
602.248	-2.89738
602.443	-3.31614
602.639	-3.34988
602.835	-2.96125
603.03	-2.83704
603.226	-3.26182
603.422	-2.8979
603.617	-3.10401
603.813	-3.31343
604.009	-3.16555
604.204	-3.5799
604.4	-3.46011
604.595	-3.20661
604.791	-3.21781
604.986	-3.44923
605.182	-3.23124
605.377	-3.35741
605.573	-3.18147
605.768	-2.82666
605.964	-3.34831
606.159	-2.83951
606.355	-3.09509
606.55	-2.78785
606.746	-3.11437
606.941	-2.65121
607.136	-3.0049
607.332	-3.48148
607.527	-2.96318
607.722	-2.57924
607.918	-2.73026
608.113	-2.84344
608.308	-3.31817
608.503	-2.95462
608.699	-3.24582
608.894	-3.12358
609.089	-3.10025
609.284	-3.63216
609.479	-3.34305
609.675	-3.51476
609.87	-3.12077
610.065	-3.65543
610.26	-3.25971
610.455	-3.16121
610.65	-3.21727
610.845	-2.73136
611.04	-3.08809
611.235	-3.04262
611.43	-2.65243
611.625	-2.88271
611.82	-3.15424
612.015	-3.11174
612.21	-3.02477
612.405	-2.85517
612.6	-3.02261
612.795	-3.05597
612.99	-2.82378
613.185	-2.58563
613.38	-2.87992
613.575	-2.72585
613.77	-3.59974
613.965	-2.86283
614.159	-2.7388
614.354	-3.04403
614.549	-2.87051
614.744	-2.86063
614.938	-2.9461
615.133	-2.4369
615.328	-2.95905
615.523	-2.68295
615.717	-2.90957
615.912	-2.61834
616.107	-2.75493
616.301	-2.95797
616.496	-3.07948
616.691	-2.67472
616.885	-3.25316
617.08	-3.22858
617.274	-2.80618
617.469	-2.80946
617.664	-3.03413
617.858	-2.84633
618.053	-3.25202
618.247	-2.56869
618.442	-2.50655
618.636	-3.06842
618.831	-2.68813
619.025	-2.62187
619.219	-3.04973
619.414	-2.87643
619.608	-2.44409
619.803	-3.2492
619.997	-2.84222
620.191	-2.70471
620.386	-2.81404
620.58	-2.9854
620.774	-2.68636
620.969	-2.75825
621.163	-2.73026
621.357	-3.11603
621.551	-2.48812
621.746	-2.33019
621.94	-2.34122
622.134	-3.20923
622.328	-2.78881
622.522	-2.56049
622.716	-3.03064
622.911	-2.90932
623.105	-3.10615
623.299	-3.37228
623.493	-3.3239
623.687	-2.68784
623.881	-2.21726
624.075	-2.58063
624.269	-3.33043
624.463	-2.21803
624.657	-2.75971
624.851	-2.80202
625.045	-3.10396
625.239	-2.96964
625.433	-3.11626
625.627	-2.8065
625.821	-2.71806
626.015	-2.99832
626.209	-3.11711
626.403	-3.28215
626.596	-3.12039
626.79	-2.95833
626.984	-3.04306
627.178	-2.86462
627.372	-2.80327
627.565	-3.03548
627.759	-2.95625
627.953	-3.0459
628.147	-2.97122
628.34	-3.06171
628.534	-3.45472
628.728	-2.74335
628.921	-2.87562
629.115	-2.764
629.309	-3.21501
629.502	-2.70805
629.696	-3.07554
629.89	-2.9175
630.083	-3.18955
630.277	-2.91261
630.47	-2.74728
630.664	-2.66596
630.857	-2.46042
631.051	-2.71146
631.244	-2.76243
631.438	-2.43985
631.631	-2.77617
631.825	-3.18036
632.018	-3.0909
632.212	-3.1815
632.405	-2.74639
632.598	-2.70865
632.792	-2.463
632.985	-2.67528
633.178	-3.03261
633.372	-2.95004
633.565	-2.60789
633.758	-3.22186
633.952	-2.43816
634.145	-2.37316
634.338	-2.99409
634.531	-2.54231
634.724	-3.37739
634.918	-2.94832
635.111	-2.55365
635.304	-2.55542
635.497	-2.70978
635.69	-2.53941
635.883	-2.76312
636.077	-2.8759
636.27	-2.87095
636.463	-2.78598
636.656	-2.65071
636.849	-3.1955
637.042	-2.79979
637.235	-2.83158
637.428	-2.80187
637.621	-2.55536
637.814	-2.58271
638.007	-3.27193
638.2	-2.39338
638.393	-2.42523
638.586	-2.70895
638.778	-3.20411
638.971	-2.20704
639.164	-2.72769
639.357	-2.71823
639.55	-2.63138
639.743	-2.7143
639.935	-2.55135
640.128	-2.8919
640.321	-3.45091
640.514	-2.803
640.707	-2.56864
640.899	-2.64841
641.092	-3.05376
641.285	-3.25504
641.477	-2.55231
641.67	-2.85257
641.863	-3.10965
642.055	-2.97871
642.248	-2.25196
642.441	-2.53635
642.633	-2.75437
642.826	-2.44571
643.018	-2.85334
643.211	-3.33016
643.403	-2.36306
643.596	-3.08466
643.788	-1.68143
643.981	-2.75453
644.173	-3.37848
644.366	-3.05516
644.558	-2.06409
644.751	-3.06185
644.943	-2.33159
645.135	-2.59364
645.328	-2.89422
645.52	-2.6444
645.712	-3.04517
645.905	-2.84898
646.097	-2.26274
646.289	-2.56246
646.482	-3.28507
646.674	-3.43671
646.866	-3.41532
647.058	-2.75245
647.251	-2.63209
647.443	-3.31293
647.635	-3.30345
647.827	-2.6585
648.019	-2.57087
648.211	-2.9672
648.404	-3.1395
648.596	-3.03066
648.788	-2.57888
648.98	-2.52491
649.172	-2.22056
649.364	-3.05533
649.556	-2.66017
649.748	-2.96057
649.94	-2.07666
650.132	-3.45443
650.324	-2.91264
650.516	-2.50974
650.708	-3.01013
650.9	-2.82956
651.092	-2.2102
651.284	-2.89241
651.476	-3.18412
651.667	-3.2222
651.859	-2.77186
652.051	-2.22817
652.243	-2.56717
652.435	-3.25116
652.627	-3.21774
652.818	-2.54238
653.01	-2.21726
653.202	-2.38278
653.394	-2.78839
653.585	-2.89223
653.777	-2.73743
653.969	-2.68694
654.16	-2.21761
654.352	-2.64038
654.544	-2.72213
654.735	-2.0149
654.927	-2.64153
655.118	-2.78068
655.31	-2.46916
655.502	-3.07104
655.693	-2.66137
655.885	-3.10518
656.076	-2.6135
656.268	-2.99307
656.459	-3.31663
656.651	-2.62003
656.842	-2.61054
657.034	-3.1973
657.225	-2.97211
657.416	-3.48715
657.608	-2.71325
657.799	-2.9855
657.99	-2.95881
658.182	-3.03085
658.373	-3.01236
658.564	-2.65062
658.756	-3.83957
658.947	-3.17874
659.138	-3.20793
659.33	-3.25212
659.521	-3.13073
659.712	-3.51217
659.903	-3.20904
660.094	-3.16958
660.286	-3.07678
660.477	-2.89139
660.668	-3.1668
660.859	-2.58054
661.05	-2.98625
661.241	-3.10176
661.432	-2.73613
661.623	-3.10796
661.814	-3.31769
662.006	-2.5691
662.197	-2.66435
662.388	-3.35433
662.579	-2.82362
662.77	-2.92712
662.96	-2.49929
663.151	-2.14816
663.342	-2.26859
663.533	-3.27737
663.724	-3.0816
663.915	-3.03621
664.106	-2.51362
664.297	-2.83809
664.488	-4.03187
664.678	-2.47885
664.869	-3.13206
665.06	-3.2797
665.251	-3.16517
665.442	-2.77813
665.632	-1.80635
665.823	-1.93141
666.014	-2.03654
666.204	-2.83482
666.395	-2.9954
666.586	-3.32906
666.776	-2.32376
666.967	-3.08232
667.158	-3.16343
667.348	-2.76228
667.539	-3.19252
667.729	-2.9432
667.92	-2.34496
668.111	-2.98733
668.301	-2.91712
668.492	-3.60542
668.682	-3.43074
668.873	-3.54674
669.063	-2.36565
669.253	-3.31361
669.444	-3.38384
669.634	-2.75011
669.825	-3.64875
670.015	-3.17853
670.206	-2.93794
670.396	-2.63979
670.586	-2.48453
670.777	-2.98554
670.967	-2.38852
671.157	-2.42697
671.347	-3.50144
671.538	-2.42807
671.728	-2.24984
671.918	-2.96737
672.108	-3.15401
672.299	-2.14294
672.489	-2.55606
672.679	-2.94048
672.869	-2.11599
673.059	-2.92619
673.249	-3.78873
673.44	-2.8695
673.63	-3.43589
673.82	-3.29054
674.01	-2.56712
674.2	-2.90109
674.39	-3.5559
674.58	-2.6189
674.77	-3.4279
674.96	-2.02367
675.15	-3.04194
675.34	-3.6612
675.53	-3.00578
675.72	-2.93922
675.91	-2.3502
676.099	-2.63706
676.289	-3.09463
676.479	-3.20375
676.669	-2.95179
676.859	-2.76694
677.049	-2.15521
677.238	-2.79633
677.428	-4.41538
677.618	-2.81562
677.808	-3.49985
677.997	-3.55633
678.187	-3.30058
678.377	-3.24153
678.567	-2.22727
678.756	-2.72416
678.946	-2.62619
679.136	-2.70202
679.325	-3.3762
679.515	-2.86561
679.704	-3.10336
679.894	-2.98404
680.084	-3.31263
680.273	-3.19749
680.463	-3.80896
680.652	-2.82837
680.842	-2.83645
681.031	-2.76151
681.221	-3.44865
681.41	-3.51841
681.6	-2.74437
681.789	-2.91274
681.978	-2.76787
682.168	-3.07108
682.357	-2.89275
682.547	-3.18958
682.736	-3.23236
682.925	-2.6271
683.115	-2.62634
683.304	-3.24378
683.493	-3.27301
683.682	-3.52887
683.872	-3.05742
684.061	-2.54483
684.25	-3.3602
684.439	-2.87783
684.629	-3.85294
684.818	-4.63138
685.007	-2.72299
685.196	-2.69227
685.385	-3.01099
685.574	-3.77723
685.763	-4.17035
685.952	-3.45797
686.142	-2.38334
686.331	-3.05733
686.52	-2.16813
686.709	-2.63707
686.898	-3.3248
687.087	-2.80171
687.276	-3.54745
687.465	-2.71933
687.654	-3.52229
687.842	-3.83887
688.031	-3.42286
688.22	-3.41929
688.409	-3.86424
688.598	-3.59809
688.787	-3.3142
688.976	-4.19217
689.165	-2.98413
689.353	-2.1583
689.542	-2.85435
689.731	-2.74779
689.92	-3.44378
690.108	-2.54837
690.297	-2.13274
690.486	-3.15171
690.675	-3.54108
690.863	-3.70293
691.052	-3.42492
691.241	-3.10223
691.429	-3.13419
691.618	-3.88199
691.806	-2.83027
691.995	-2.69412
692.184	-2.60442
692.372	-3.38952
692.561	-2.83657
692.749	-1.66271
692.938	-3.32518
693.126	-3.19504
693.315	-2.71836
693.503	-2.20668
693.692	-3.63533
693.88	-3.69007
694.068	-4.73943
694.257	-3.23887
694.445	-2.78039
694.634	-1.86594
694.822	-2.91623
695.01	-2.22415
695.199	-2.40855
695.387	-3.99204
695.575	-3.62595
695.763	-2.44835
695.952	-3.04221
696.14	-2.6449
696.328	-3.27677
696.516	-2.84755
696.705	-3.32942
696.893	-3.01861
697.081	-2.62648
697.269	-2.60755
697.457	-2.76327
697.645	-3.7335
697.833	-3.41238
698.021	-2.71921
698.21	-3.41708
698.398	-3.41107
698.586	-3.13317
698.774	-4.09223
698.962	-3.28128
699.15	-3.47722
699.338	-3.31066
699.526	-3.36145
699.714	-3.76395
699.901	-2.96228
700.089	-3.61368
700.277	-2.60221
700.465	-2.82203
700.653	-3.38314
700.841	-2.86937
701.029	-2.63759
701.217	-3.85739
701.404	-2.0425
701.592	-3.16849
701.78	-2.65961
701.968	-3.17078
702.155	-2.96605
702.343	-2.90042
702.531	-3.44146
702.718	-3.16858
702.906	-3.78663
703.094	-3.0382
703.281	-2.06223
703.469	-3.13123
703.657	-3.17979
703.844	-4.13815
704.032	-3.67572
704.219	-2.33417
704.407	-3.75775
704.595	-2.55766
704.782	-3.76689
704.97	-2.46184
705.157	-2.77962
705.345	-2.77911
705.532	-1.42513
705.719	-4.13398
705.907	-2.69678
706.094	-4.18825
706.282	-3.55162
706.469	-1.94972
706.656	-2.6857
706.844	-2.54216
707.031	-2.86799
707.218	-2.46735
707.406	-3.20182
707.593	-5.09052
707.78	-3.77696
707.968	-2.84745
708.155	-3.00361
708.342	-2.32349
708.529	-2.66237
708.716	-1.94354
708.904	-2.41923
709.091	-3.71838
709.278	-2.44795
709.465	-4.10244
709.652	-3.28378
709.839	-3.38728
710.026	-2.11082
710.213	-2.63504
710.4	-2.93647
710.587	-3.33119
710.774	-3.5166
710.961	-2.84335
711.148	-3.81445
711.335	-3.92638
711.522	-2.70414
711.709	-4.42375
711.896	-3.62741
712.083	-3.79416
712.27	-2.61874
712.457	-2.40398
712.644	-2.36802
712.831	-3.37051
713.017	-2.8722
713.204	-4.0593
713.391	-2.2635
713.578	-3.79149
713.765	-3.34287
713.951	-3.40897
714.138	-3.39579
714.325	-4.4429
714.512	-1.74659
714.698	-3.02826
714.885	-3.59118
715.072	-3.16378
715.258	-4.81908
715.445	-2.12332
715.631	-3.72784
715.818	-3.68321
716.005	-3.40699
716.191	-2.97459
716.378	-3.22512
716.564	-3.04654
716.751	-2.82727
716.937	-2.3952
717.124	-3.73411
717.31	-4.34053
717.497	-2.31392
717.683	-1.8541
717.869	-6.06411
718.056	-2.50704
718.242	-3.29835
718.429	-1.03978
718.615	-2.54342
718.801	-2.22805
718.988	-2.01886
719.174	-4.65883
719.36	-3.88366
719.547	-3.946
719.733	-3.18041
719.919	-4.7132
720.105	-1.75399
720.291	-3.58715
720.478	-1.28614
720.664	-2.26515
720.85	-4.05253
721.036	-2.81633
721.222	-4.86688
721.408	-4.98022
721.595	-2.80383
721.781	-2.62646
721.967	-4.71235
722.153	-2.68629
722.339	-2.18286
722.525	-2.28586
722.711	-2.18026
722.897	-4.49875
723.083	-1.74126
723.269	-1.02316
723.455	-2.10794
723.641	-5.70512
723.827	-3.71901
724.012	-3.57826
724.198	-4.23561
724.384	-3.92055
724.57	-3.53705
724.756	-2.64979
724.942	-2.62078
725.127	-3.612
725.313	-1.7453
725.499	-3.13777
725.685	-5.21572
725.87	-1.94813
726.056	-1.74956
726.242	-2.74127
726.428	-1.67658
726.613	-2.66365
726.799	-1.914
726.985	-2.90703
727.17	-2.01561
727.356	-4.77342
727.541	-4.05581
727.727	-3.54539
727.913	-3.48175
728.098	-2.22476
728.284	-3.40561
728.469	-4.48438
728.655	-3.08684
728.84	-3.19243
729.026	-1.32116
729.211	-5.83186
729.397	-3.29044
729.582	-5.43587
729.767	-3.4932
729.953	-4.18797
730.138	-5.72865
730.323	-3.62666
730.509	-3.24281
730.694	-3.56873
730.879	-4.00168
731.065	-2.59574
731.25	-3.82745
731.435	-4.81519
731.621	-2.47755
731.806	-1.5728
731.991	-4.43771
732.176	-3.14124
732.361	-4.26015
732.547	-4.42201
732.732	-3.85915
732.917	-2.25064
733.102	-2.44028
733.287	-2.61239
733.472	-2.56757
733.657	-3.36833
733.842	-3.17085
734.027	-2.22463
734.212	-3.7858
734.397	-3.31612
734.582	-3.76006
734.767	-5.07576
734.952	-5.11792
735.137	-2.14416
735.322	-4.53508
735.507	-3.15737
735.692	-5.54287
735.877	-1.90243
736.062	-3.73846
736.247	-2.64278
736.431	-4.04172
736.616	-2.5411
736.801	-2.45485
736.986	-1.00351
737.171	-5.67474
737.355	2.0661
737.54	-4.07189
737.725	-2.32563
737.909	-6.33317
738.094	-3.53129
738.279	-3.27377
738.463	-2.92229
738.648	-4.89564
738.833	-2.59456
739.017	-3.05258
739.202	-1.20253
739.386	-3.03877
739.571	-3.71314
739.756	-3.83197
739.94	-3.41267
740.125	-0.92211
740.309	-2.05942
740.494	-3.56517
740.678	-2.93058
740.863	-3.16843
741.047	-3.80316
741.231	-3.24566
741.416	-5.32262
741.6	-1.73743
741.785	-4.65725
741.969	-2.43505
742.153	-6.35054
742.338	-1.36862
742.522	-4.69424
742.706	-3.83003
742.89	-1.83614
743.075	-0.5544
743.259	-1.79385
743.443	-3.86644
743.627	-3.52842
743.812	-1.33362
743.996	-2.46637
744.18	-1.72101
744.364	-4.15632
744.548	-2.33054
744.732	-4.0905
744.916	-1.83398
745.1	-3.27882
745.285	-3.53023
745.469	-4.91125
745.653	-3.15085
745.837	-3.43676
746.021	-8.93065
746.205	-2.60342
746.389	-4.00389
746.573	-7.29625
746.757	-2.11189
746.94	-4.61942
747.124	-2.58515
747.308	-3.91703
747.492	-1.64514
747.676	-3.45655
747.86	-5.37429
748.044	-1.51613
748.227	-2.99454
748.411	-3.65794
748.595	-3.7922
748.779	-4.34227
748.963	-2.82828
749.146	-2.48466
749.33	-4.09353
749.514	-2.08503
749.697	-3.52669
749.881	-4.14769
750.065	-2.3365
750.248	-1.07253
750.432	-1.62592
750.616	-5.1434
750.799	-6.04118
750.983	-6.59473
751.166	-7.89987
751.35	-1.85416
751.533	-12.38687
751.717	-3.22136
751.9	-1.5809
752.084	-5.81389
752.267	-2.32593
752.451	-3.65454
752.634	-6.78325
752.818	-6.46286
753.001	-3.23586
753.184	-3.86807
753.368	-5.99831
753.551	-2.37729
753.734	-3.97448
753.918	-3.01315
754.101	-3.26917
754.284	-3.41136
754.467	-2.78109
754.651	-5.52189
754.834	1.36271
755.017	-5.97622
755.2	-4.69446
755.384	-5.03885
755.567	-2.45862
755.75	-5.82126
755.933	-4.72549
756.116	-2.72116
756.299	-2.1086
756.482	-0.96253
756.665	-2.25297
756.848	-3.46903
757.032	-2.22402
757.215	-4.33717
757.398	-2.71261
757.581	-2.84088
757.764	-4.27622
757.947	-3.17067
758.129	-3.10418
758.312	-3.55212
758.495	-2.87793
758.678	-3.99438
758.861	-0.83584
759.044	-9.6339
759.227	-5.00361
759.41	-4.52959
759.592	-3.09682
759.775	-2.51088
759.958	-7.20563
760.141	-4.06187
760.324	-10.48951
760.506	-5.21948
760.689	-5.49109
760.872	-3.55597
761.054	-5.74561
761.237	-2.81646
761.42	-4.048
761.602	-6.03567
761.785	-4.2112
761.968	-0.88036
762.15	-7.11567
762.333	0.15171
762.515	-3.72104
762.698	-2.99302
762.88	-3.8511
763.063	-5.74789
763.245	-1.74785
763.428	-3.33573
763.61	-4.26272
763.793	-3.16168
763.975	-6.30133
764.158	-2.78993
764.34	-5.0652
764.522	-4.77372
764.705	-5.92693
764.887	-3.68391
765.069	-3.97226
765.252	-2.78431
765.434	-3.45743
765.616	-1.13424
765.799	-3.4287
765.981	-1.53156
766.163	-4.62926
766.345	-6.71373
766.528	-0.58799
766.71	-1.38239
766.892	-5.44797
767.074	-7.74348
767.256	-3.83861
767.438	-13.15769
767.62	-5.88452
767.802	-4.95316
767.985	0.17192
768.167	-11.88871
768.349	-3.48467
768.531	-5.72579
768.713	-5.96373
768.895	-5.08115
769.077	-7.20207
769.259	-7.98724
769.441	-84.26101
769.623	-3.9456
769.804	-8.40928
769.986	0.15551
770.168	-0.60778
770.35	-20.88584
770.532	-13.45579
770.714	-2.10944
770.896	-1.62688
771.077	-1.62027
771.259	-17.7111
771.441	-13.95918
771.623	-8.34663
771.804	18.78934
771.986	-7.54274
772.168	-7.20383
772.35	-2.78383
772.531	-43.03365
772.713	3.68771
772.894	-21.93215
773.076	-6.66413
773.258	-9.52156
773.439	-17.23243
773.621	-0.92774
773.802	-6.51203
773.984	-6.27995
774.166	-8.54213
774.347	-16.3507
774.529	-6.08359
774.71	-1.10461
774.891	-3.96591
775.073	0.09075
775.254	-19.27637
775.436	-1.58698
775.617	-31.36291
775.799	-8.52779
775.98	-5.02955
776.161	-10.30178
776.343	-26.06305
776.524	-3.91696
776.705	3.16506
776.886	-5.4726
777.068	-10.39653
777.249	72.52843
777.43	-20.57064
777.611	-0.20416
777.793	-10.92006
777.974	-16.81745
778.155	-2.11472
778.336	-9.80046
778.517	-54.53939
778.698	-1.80122
778.879	-0.65378
779.061	-2.87833
779.242	2.51258
779.423	-3.26828
779.604	-7.3284
779.785	-10.53418
779.966	-1.31634
780.147	-14.57887
780.328	-20.02853
780.509	-9.67061
780.69	-6.21086
780.871	-3.41263
781.051	-0.55716
781.232	-10.43914
781.413	-8.28138
781.594	-7.39227
781.775	-10.18666
781.956	-2.0249
782.137	-1.19383
782.317	-9.04407
782.498	1.08616
782.679	-3.55484
782.86	0.98758
783.04	-2.85807
783.221	-7.43071
783.402	-18.8115
783.583	-4.19508
783.763	-10.71288
783.944	-7.26667
784.124	-5.27097
784.305	-19.74874
784.486	-3.74644
784.666	-10.06873
784.847	-6.76735
785.027	1.74438
785.208	-5.77868
785.388	-2.92886
785.569	-11.59601
785.749	-6.52367
785.93	-9.13079
786.11	0.60095
786.291	-0.37055
786.471	-4.08354
786.652	-9.70515
786.832	-0.69451
787.012	-4.64841
787.193	-3.57131
787.373	-6.87076
787.553	-5.20772
787.734	-2.22465
787.914	-7.28424
788.094	-13.6464
788.275	-7.56681
788.455	-1.45916
788.635	-5.11705
788.815	-2.83633
788.995	-4.12882
789.176	-5.14644
789.356	-6.36974
789.536	-4.60401
789.716	-4.02976
789.896	-2.91073
790.076	-4.45229
790.256	-6.41103
790.436	-3.1038
790.616	-5.05035
790.796	-6.22152
790.976	-5.21369
791.156	3.25394
791.336	-37.69439
791.516	-10.50172
791.696	-10.70885
791.876	-7.58318
792.056	-5.39739
792.236	-2.91917
792.416	-6.25562
792.596	3.02106
792.776	-7.64614
792.956	0.96696
793.135	-17.98254
793.315	-6.70569
793.495	0.77385
793.675	-13.03194
793.854	-4.63795
794.034	-7.99121
794.214	-9.21127
794.394	-6.14549
794.573	-10.74804
794.753	-1.97146
794.933	-5.7224
795.112	-3.41871
795.292	-8.38759
795.472	-4.89227
795.651	-0.20253
795.831	-6.03399
796.01	-6.27848
796.19	-10.13478
796.369	-5.72956
796.549	0.0059
796.728	-2.12083
796.908	-2.90425
797.087	-5.27543
797.267	-3.63467
797.446	0.52848
797.626	-14.10573
797.805	3.2663
797.984	-4.3158
798.164	-4.38276
798.343	-1.9263
798.522	-1.51389
798.702	-13.32863
798.881	-0.70051
799.06	0.38113
799.239	-2.03258
799.419	-9.23599
799.598	-18.4846
799.777	-10.5252
799.956	-3.66094
800.136	-3.29427
800.315	0.2943
800.494	-8.95035
800.673	-8.33702
800.852	-10.04518
801.031	-2.36756
801.21	0.31834
801.389	-7.71178
801.568	-9.13645
801.747	-25.95448
801.926	-12.04042
802.105	-25.04867
802.284	-6.51991
802.463	-4.6326
802.642	-1.35315
802.821	-1.20158
803	1.70415
803.179	-13.104
803.358	-3.74919
803.537	-8.84688
803.716	-6.63391
803.895	-7.33276
804.073	-7.3522
804.252	-0.68944
804.431	-9.14746
804.61	0.33915
804.789	4.89836
804.967	-4.43955
805.146	-7.23609
805.325	-18.44005
805.503	-15.81004
805.682	-1.51831
805.861	38.08743
806.039	-10.42956
806.218	-5.31469
806.397	-4.89179
806.575	2.66745
806.754	-9.0463
806.932	0.50586
807.111	-44.0354
807.289	-8.34049
807.468	-16.64806
807.646	-19.6374
807.825	-15.37216
808.003	-3.27351
808.182	-12.61029
808.36	3.43014
808.539	-4.74889
808.717	-24.63231
808.895	2.31314
809.074	-20.15542
809.252	-8.0674
809.43	-12.34196
809.609	-17.43442
809.787	-80.14254
809.965	-5.96208
810.144	-6.4881
810.322	-15.40568
810.5	8.29684
810.678	2.39482
810.856	401.191
811.035	-17.83995
811.213	1.29364
811.391	-21.89846
811.569	-5.63974
811.747	-4.21965
811.925	-9.77156
812.103	-0.23953
812.281	-4.66565
812.459	-250.25461
812.637	-130.06359
812.816	-29.15855
812.994	36.52397
813.171	-16.17834
813.349	-8.74361
813.527	-14.15681
813.705	9.67772
813.883	40.03071
814.061	20.92009
814.239	45.87141
814.417	30.57286
814.595	-16.20286
814.773	-6.957
814.95	-4.10691
815.128	-5.53523
815.306	-21.46885
815.484	1.41401
815.662	-0.90529
815.839	-3.4286
816.017	-4.87092
816.195	-119.79626
816.372	-1.73502
816.55	-11.23153
816.728	-23.00799
816.905	-8.83161
817.083	-279.38709
817.261	-14.36244
817.438	20.62567
817.616	402.2908
817.793	2.27185
817.971	-19.12024
818.148	-14.89831
818.326	-160.26917
818.503	-6.09468
818.681	-85.66137
818.858	-5.33918
819.036	-2.13273
819.213	-9.54802
819.391	-10.65545
819.568	-11.23739
819.745	-8.96975
819.923	-11.83078
820.1	-6.30157
820.277	-5.55549
820.455	-4.11019
820.632	-5.6122
820.809	-3.64729
820.986	-6.0134
821.164	-4.60203
821.341	-5.35048
821.518	-5.06157
821.695	-4.3098
821.872	-5.8172
822.05	-4.6743
822.227	-5.44496
822.404	-5.52508
822.581	-4.44161
822.758	-5.72231
822.935	-6.17746
823.112	-5.75875
823.289	-5.66716
823.466	-6.2294
823.643	-5.92115
823.82	-5.32316
823.997	-6.59358
824.174	-6.62272
824.351	-7.06093
824.528	-6.87367
824.705	-6.11171
824.882	-4.75414
825.059	-8.21873
825.236	-4.39759
825.412	-5.60737
825.589	-4.1902
825.766	-4.74165
825.943	-7.60926
826.12	-5.77687
826.296	-3.7047
826.473	-6.15697
826.65	-5.71761
826.827	-6.15181
827.003	-4.94324
827.18	-5.90401
827.357	-7.44411
827.533	-6.81614
827.71	-4.74222
827.887	-6.32528
828.063	-4.93906
828.24	-5.4865
828.416	-4.40555
828.593	-5.39787
828.769	-6.81457
828.946	-3.36323
829.122	-6.88866
829.299	-3.07139
829.475	-5.01403
829.652	-10.39621
829.828	-20.83977
830.005	-5.96229
830.181	-15.37619
830.357	-2.71565
830.534	-28.10087
830.71	-14.44118
830.886	-14.33951
831.063	-19.29212
831.239	-15.69383
831.415	2.74756
831.592	-43.29862
831.768	-12.13633
831.944	-13.35226
832.12	-4.14855
832.296	-24.27247
832.473	-4.9724
832.649	-13.34024
832.825	-9.51138
833.001	-3.76414
833.177	-11.43523
833.353	-7.22783
833.529	-2.4622
833.705	-6.72229
833.881	-4.57394
834.058	-7.04695
834.234	-6.33587
834.41	-4.60643
834.586	-4.18313
834.761	-4.14118
834.937	-4.76321
835.113	-4.94912
835.289	-5.46328
835.465	-10.04934
835.641	-4.6452
835.817	-5.56567
835.993	-29.05394
836.169	-7.49195
836.344	-6.74948
836.52	-17.33506
836.696	-12.66773
836.872	-8.94347
837.048	-1.7145
837.223	-2.6959
837.399	32.39117
837.575	-14.78421
837.75	-48.14224
837.926	155.27255
838.102	5.49381
838.277	5.3333
838.453	7.95707
838.628	5.12432
838.804	-17.66781
838.98	7.49643
839.155	-68.4472
839.331	360.69966
839.506	9.93367
839.682	-1.10828
839.857	-24.40165
840.033	1.53714
840.208	-17.54002
840.384	-3.02319
840.559	-7.23695
840.734	-14.74325
840.91	37.36036
841.085	-20.57923
841.26	-3.02048
841.436	13.62741
841.611	-21.81593
841.786	103.42006
841.962	-6.47749
842.137	15.224
842.312	-2.00893
842.487	-20.82651
842.663	14.95088
842.838	-19.37419
843.013	4.04815
843.188	-7.64671
843.363	46.56118
843.538	-1.57482
843.714	5.21391
843.889	7.96908
844.064	-2.95706
844.239	8.71821
844.414	-8.85539
844.589	-2.58996
844.764	-0.79701
844.939	-7.72371
845.114	2.07224
845.289	-3.15078
845.464	-0.05226
845.639	1.34929
845.814	45.3101
845.989	13.31083
846.163	-1.86062
846.338	18.30826
846.513	-1.79431
846.688	13.96035
846.863	-1.64401
847.038	-8.72354
847.212	10.51385
847.387	2.2146
847.562	15.76698
847.737	-0.50917
847.911	82.9644
848.086	-12.85225
848.261	6.57227
848.435	10.36705
848.61	-4.11546
848.785	-16.27778
848.959	-3.12939
849.134	1.91894
849.308	1.31918
849.483	-4.40471
849.658	-2.26039
849.832	6.84057
850.007	11.08607
850.181	2.38559
850.356	-3.26757
850.53	4.08129
850.705	11.31594
850.879	-20.89077
851.053	18.85407
851.228	-2.50577
851.402	-0.89433
851.577	5.89428
851.751	-0.6537
851.925	0.36701
852.099	-54.07433
852.274	-20.87008
852.448	2.2426
852.622	1.01171
852.797	2.11469
852.971	10.81519
853.145	-5.4255
853.319	-0.27216
853.493	2.79895
853.668	-10.67111
853.842	5.97205
854.016	-1.69016
854.19	6.10303
854.364	11.47263
854.538	-0.72497
854.712	6.74458
854.886	-8.5398
855.06	17.12443
855.234	-24.55998
855.408	1.95083
855.582	-0.7062
855.756	-4.52162
855.93	6.37654
856.104	2.65199
856.278	9.82893
856.452	3.33538
856.626	-1.04594
856.8	-1.61786
856.973	5.79408
857.147	0.59874
857.321	-4.12979
857.495	2.35861
857.669	-12.42378
857.842	13.64554
858.016	4.25593
858.19	1.28431
858.364	1.46543
858.537	14.19213
858.711	1.63936
858.885	1.18225
859.058	-8.99073
859.232	-61.64545
859.405	213.41058
859.579	5.06001
859.753	-0.84514
859.926	7.42045
860.1	210.32863
860.273	7.1112
860.447	1.29019
860.62	5.01677
860.794	3.61245
860.967	-0.85937
861.141	2.03666
861.314	1.66037
861.487	3.36662
861.661	6.75626
861.834	2.37703
862.008	4.23477
862.181	2.00713
862.354	4.84798
862.528	-12.24297
862.701	5.96886
862.874	-3.9226
863.047	5.66516
863.221	15.93658
863.394	263.34784
863.567	1.68862
863.74	-5.15877
863.913	4.84452
864.087	6.14691
864.26	0.84228
864.433	5.3138
864.606	2.97425
864.779	10.18057
864.952	139.46398
865.125	14.88937
865.298	7.0068
865.471	8.95636
865.644	1.71789
865.817	-0.8874
865.99	4.17761
866.163	3.97794
866.336	-4.50925
866.509	-15.60872
866.682	5.47019
866.855	8.37017
867.028	34.52661
867.2	-6.95514
867.373	7.59765
867.546	3.54923
867.719	1.20118
867.892	-2.99238
868.064	-5.81914
868.237	-9.36625
868.41	0.13063
868.583	33.16842
868.755	8.98116
868.928	6.77034
869.101	-2.58156
869.273	-0.24739
869.446	-7.45308
869.619	-1.04534
869.791	14.87835
869.964	-4.80804
870.136	-2.69294
870.309	3.39981
870.481	6.46644
870.654	-136.78333
870.826	17.0551
870.999	4.33997
871.171	4.71862
871.344	9.40319
871.516	7.72612
871.689	-12.09934
871.861	-3.52965
872.033	2.6015
872.206	7.95001
872.378	6.86928
872.55	18.54625
872.723	28.53444
872.895	-5.24384
873.067	5.29461
873.24	0.90589
873.412	23.12611
873.584	21.41274
873.756	6.41279
873.928	0.96984
874.101	-2.45318
874.273	0.2534
874.445	-5.74207
874.617	-5.09279
874.789	1.32794
874.961	8.98782
875.133	-3.55216
875.305	-1.89933
875.477	4.53742
875.649	275.39635
875.821	18.43087
875.993	4.75528
876.165	8.88677
876.337	7.69782
876.509	2.36421
876.681	-8.31638
876.853	-0.05459
877.025	0.44321
877.197	1.5597
877.369	10.02749
877.541	8.47203
877.712	-27.25422
877.884	39.82975
878.056	5.84587
878.228	-55.51296
878.4	0.50423
878.571	-2.05854
878.743	-21.32562
878.915	0.65381
879.086	45.66793
879.258	-5.88992
879.43	3.20787
879.601	-176.42365
879.773	97.77852
879.945	-5.37213
880.116	-1.84987
880.288	-5.13275
880.459	-2.73921
880.631	-4.38989
880.802	-4.77497
880.974	-5.13808
881.145	-3.99066
881.317	-6.1001
881.488	-4.70843
881.66	-5.87385
881.831	-5.29258
882.002	-5.11559
882.174	-5.35795
882.345	-6.12896
882.517	-3.88218
882.688	-5.38246
882.859	-6.39448
883.03	-8.55174
883.202	-6.61848
883.373	-7.24796
883.544	-7.21649
883.715	-7.64512
883.887	-8.48676
884.058	-12.60898
884.229	-18.6179
884.4	-13.56821
884.571	-28.31991
884.742	-20.54116
884.914	-25.30167
885.085	-63.52446
885.256	10.16532
885.427	108.10816
885.598	35.43477
885.769	35.00027
885.94	30.7948
886.111	-45.53117
886.282	25.93189
886.453	42.53075
886.624	-36.56766
886.795	10.22839
886.966	57.85729
887.136	22.60202
887.307	71.90794
887.478	8.9393
887.649	12.62854
887.82	11.40945
887.991	5.00705
888.161	6.30094
888.332	15.84687
888.503	-5.4605
888.674	3.89033
888.844	-0.1557
889.015	2.53672
889.186	17.65499
889.356	2.82561
889.527	135.12622
889.698	2.90156
889.868	10.82974
890.039	-2.69432
890.209	8.38437
890.38	6.88163
890.551	-8.65346
890.721	4.37919
890.892	8.4607
891.062	3.10268
891.233	-5.06413
891.403	0.46223
891.574	14.80846
891.744	14.50809
891.914	-2.31248
892.085	13.25471
892.255	-35.55558
892.425	3.20938
892.596	3.42641
892.766	5.07598
892.936	1.99353
893.107	2.1804
893.277	-28.3075
893.447	-21.087
893.618	8.25159
893.788	6.18301
893.958	0.20457
894.128	-8.61876
894.298	-20.40153
894.468	275.84492
894.639	-4.58477
894.809	-14.58661
894.979	-6.49268
895.149	-16.89019
895.319	-8.50652
895.489	-19.41348
895.659	3.62645
895.829	-8.80519
895.999	-7.27465
896.169	-11.85373
896.339	-25.92601
896.509	8.1458
896.679	11.95296
896.849	11.18572
897.019	7.56737
897.189	-5.85052
897.358	8.6708
897.528	8.7136
897.698	-54.36242
897.868	4.28724
898.038	1.53132
898.208	1.85727
898.377	109.75282
898.547	1.76062
898.717	4.67028
898.886	-6.50925
899.056	6.69163
899.226	1.39701
899.395	-7.30855
899.565	5.90337
899.735	5.84158
899.904	8.05198
900.074	8.8327
900.244	28.10754
900.413	5.78806
900.583	37.99105
900.752	-1.48579
900.922	6.76979
901.091	3.84458
901.261	6.90776
901.43	-3.807
901.599	1.30809
901.769	-2.20565
901.938	2.93012
902.108	-1.43785
902.277	4.73125
902.446	-69.71458
902.616	2.05291
902.785	16.49329
902.954	3.59283
903.124	3.60147
903.293	-12.17018
903.462	-24.01136
903.631	17.97778
903.801	-1.95675
903.97	-11.9348
904.139	-20.84055
904.308	-4.30332
904.477	-5.04383
904.646	-4.83238
904.816	-9.02408
904.985	-11.40827
905.154	58.64245
