Data from WindowProjectSample3_Transmission__23__00023.txt Node

Date: Sun May 04 10:12:22 EDT 2025
User: jessi
Spectrometer: SR400872
Trigger mode: 0
Integration Time (sec): 5.000050E-1
Scans to average: 10
Electric dark correction enabled: true
Nonlinearity correction enabled: true
Boxcar width: 0
XAxis mode: Wavelengths
Number of Pixels in Spectrum: 3648
>>>>>Begin Spectral Data<<<<<
184.909	-1.25385
185.132	0.07882
185.355	-2.01072
185.578	-1.35559
185.801	0.04963
186.024	1.82185
186.247	9.41076
186.47	14.59174
186.693	32.73097
186.916	-119.4908
187.139	-0.13432
187.362	-3.85425
187.585	-18.62074
187.808	-7.39973
188.031	39.85619
188.254	7.11079
188.476	7.64768
188.699	6.05614
188.922	-38.17441
189.145	3.33167
189.368	11.56123
189.591	1.71755
189.813	-1.76992
190.036	-1.97567
190.259	-3.03402
190.482	7.60492
190.705	2.67679
190.927	-3.44624
191.15	-0.8697
191.373	0.54873
191.595	10.1946
191.818	-1.16016
192.041	12.90497
192.263	9.1731
192.486	12.56592
192.709	2.24207
192.931	1.80758
193.154	0.60045
193.377	4.56424
193.599	-2.788
193.822	-2.60118
194.044	2.65986
194.267	-3.00168
194.489	25.29848
194.712	3.09026
194.934	3.91312
195.157	-4.09316
195.379	4.55223
195.602	3.89118
195.824	-2.96707
196.047	4.09885
196.269	3.41586
196.492	9.72325
196.714	-1.83147
196.936	3.09978
197.159	1.51145
197.381	10.57897
197.604	25.53337
197.826	-4.87599
198.048	-0.09545
198.271	3.90464
198.493	1.96611
198.715	4.47434
198.938	9.61239
199.16	-2.87122
199.382	1.21122
199.604	17.25242
199.827	5.13507
200.049	-0.5919
200.271	2.67953
200.493	0.0512
200.715	3.50683
200.938	7.64512
201.16	3.8564
201.382	4.5076
201.604	-1.79099
201.826	4.11452
202.048	1.59235
202.27	9.65073
202.492	4.18921
202.715	-2.26479
202.937	4.62214
203.159	0.84735
203.381	2.64147
203.603	0.62108
203.825	12.30101
204.047	6.14312
204.269	8.12702
204.491	2.0292
204.713	5.76274
204.935	4.26936
205.156	6.3801
205.378	5.29629
205.6	-4.01718
205.822	-1.00665
206.044	26.71362
206.266	4.32762
206.488	-4.02777
206.71	2.35293
206.932	7.94916
207.153	1.47525
207.375	11.37737
207.597	5.592
207.819	1.71433
208.041	-0.50237
208.262	-8.58781
208.484	11.98508
208.706	4.92131
208.927	11.93656
209.149	4.79827
209.371	1.77375
209.593	12.25725
209.814	11.33774
210.036	24.54751
210.258	2.04774
210.479	11.00163
210.701	5.71163
210.922	7.73162
211.144	-12.91781
211.366	-0.77834
211.587	4.82446
211.809	5.2072
212.03	4.3057
212.252	14.6013
212.473	10.47911
212.695	18.98232
212.916	4.32798
213.138	12.21788
213.359	-0.23361
213.581	6.68791
213.802	4.76366
214.024	-2.45645
214.245	-4.67177
214.466	-2.22488
214.688	3.12323
214.909	1.25259
215.131	-1.32681
215.352	14.42063
215.573	6.34183
215.795	1.8121
216.016	-0.03362
216.237	3.91825
216.459	7.27501
216.68	4.29306
216.901	2.84207
217.122	4.18161
217.344	-4.36969
217.565	0.70319
217.786	2.3353
218.007	1.74191
218.228	22.10154
218.45	-3.21373
218.671	-4.09154
218.892	5.31761
219.113	8.32746
219.334	-73.50483
219.555	-3.36254
219.776	4.42788
219.997	-0.14498
220.219	1.94348
220.44	12.59827
220.661	12.01371
220.882	3.68184
221.103	14.71223
221.324	-1.31194
221.545	-1.06028
221.766	1.19771
221.987	-9.48312
222.208	-5.63074
222.429	3.29763
222.65	35.43187
222.87	2.95289
223.091	6.8817
223.312	4.05207
223.533	-1.35142
223.754	0.06255
223.975	2.85637
224.196	5.46432
224.417	1.76806
224.637	9.57699
224.858	28.95004
225.079	9.19307
225.3	-0.90437
225.521	-0.76104
225.741	5.93105
225.962	2.55028
226.183	-8.04909
226.404	1.81425
226.624	0.02112
226.845	4.42928
227.066	5.9495
227.286	5.23295
227.507	-8.28513
227.728	-8.96754
227.948	2.93557
228.169	259.73684
228.389	-6.97915
228.61	3.12556
228.831	-9.94905
229.051	-0.85523
229.272	2.14145
229.492	-6.45045
229.713	-1.80037
229.933	-2.74701
230.154	-5.71693
230.374	4.74396
230.595	-9.53517
230.815	-5.39207
231.036	1.62799
231.256	-7.15598
231.477	54.08454
231.697	8.00448
231.917	-5.228
232.138	-49.92867
232.358	2.13925
232.579	11.88428
232.799	-0.54065
233.019	-4.1118
233.24	10.83924
233.46	-6.01646
233.68	-170.27508
233.901	-24.51619
234.121	-7.21901
234.341	-4.63675
234.561	-6.50211
234.782	-4.72668
235.002	-172.47276
235.222	-0.66317
235.442	-15.55447
235.662	-10.61771
235.883	-36.04676
236.103	-13.57578
236.323	2.96515
236.543	-7.18579
236.763	-4.27943
236.983	7.09272
237.203	-11.34131
237.423	-35.33503
237.643	-1.09764
237.864	37.5989
238.084	3.27368
238.304	2.28706
238.524	-15.67643
238.744	-14.07458
238.964	-48.6827
239.184	-1.09305
239.404	2.62798
239.624	0.60256
239.843	-9.30824
240.063	-4.4952
240.283	3.52844
240.503	-1.55939
240.723	-4.37235
240.943	-0.09195
241.163	0.94652
241.383	7.32896
241.603	-1.13443
241.822	0.14469
242.042	-0.98633
242.262	-0.02356
242.482	0.08123
242.702	-0.0251
242.921	-0.4199
243.141	-0.28487
243.361	-0.08847
243.581	-0.8901
243.8	0.15399
244.02	-0.09612
244.24	0.66891
244.459	-0.70664
244.679	-0.3976
244.899	-0.21525
245.118	-1.69656
245.338	-2.20426
245.558	-1.04823
245.777	0.35517
245.997	0.20247
246.216	0.09516
246.436	-0.01021
246.655	-0.39437
246.875	0.07136
247.094	-0.07044
247.314	-0.01644
247.533	-0.22933
247.753	-0.64753
247.972	-0.19092
248.192	-0.30435
248.411	-0.14141
248.631	-0.41354
248.85	-0.1495
249.07	-0.13914
249.289	-0.31186
249.508	-0.46189
249.728	-0.03673
249.947	-0.17385
250.166	-0.05827
250.386	-0.66138
250.605	-0.81187
250.824	-2.43734
251.044	-1.59347
251.263	-0.70461
251.482	-0.54313
251.701	-0.30992
251.921	-0.0092
252.14	-0.62563
252.359	-0.48199
252.578	-0.93648
252.798	-0.68112
253.017	0.01091
253.236	0.21375
253.455	0.00284
253.674	0.03931
253.893	0.20934
254.112	0.17884
254.331	-0.08231
254.551	0.51295
254.77	-0.02459
254.989	-2.19064
255.208	0.16105
255.427	-0.30778
255.646	-1.58314
255.865	-1.3338
256.084	-0.3092
256.303	-1.0342
256.522	-2.26479
256.741	-0.07994
256.96	-1.28517
257.179	0.7049
257.397	-1.65911
257.616	-0.93622
257.835	-0.18841
258.054	-0.09378
258.273	0.15082
258.492	0.54269
258.711	0.07739
258.93	-0.66565
259.148	-0.41986
259.367	-0.16618
259.586	-0.01456
259.805	-0.21859
260.023	-0.09526
260.242	0.06514
260.461	-0.16067
260.68	-0.13555
260.898	-0.25072
261.117	-0.17145
261.336	0.001
261.554	-0.13232
261.773	-0.19945
261.992	-0.46252
262.21	-0.28047
262.429	-0.10894
262.648	-0.29228
262.866	-0.5279
263.085	0.04104
263.303	-0.3438
263.522	-0.30961
263.74	-0.23209
263.959	-0.81397
264.178	0.1157
264.396	-0.07234
264.615	-0.41639
264.833	1.11534
265.051	0.27669
265.27	-0.71181
265.488	0.19851
265.707	-0.18606
265.925	0.2327
266.144	0.32742
266.362	-0.40262
266.58	-0.14851
266.799	0.10373
267.017	-0.18933
267.235	0.41852
267.454	-0.44118
267.672	-0.56372
267.89	-0.61588
268.109	0.12667
268.327	-0.10714
268.545	0.32872
268.763	0.08309
268.982	0.3792
269.2	0.09071
269.418	0.0262
269.636	-0.13918
269.854	0.04874
270.073	-0.0069
270.291	-0.30778
270.509	-0.22079
270.727	-0.2671
270.945	-0.1386
271.163	0.02747
271.381	0.10562
271.599	-0.2655
271.817	-0.20848
272.036	-0.10552
272.254	0.09578
272.472	0.08533
272.69	-0.248
272.908	-0.08253
273.126	-0.05869
273.344	-0.00996
273.562	-0.05668
273.779	-0.12924
273.997	-0.10381
274.215	-0.09435
274.433	0.15933
274.651	-0.00616
274.869	-0.34445
275.087	-0.64435
275.305	-0.42193
275.523	-0.01871
275.74	-0.10346
275.958	0.04065
276.176	-0.10137
276.394	-0.16841
276.612	-0.51292
276.829	-0.03315
277.047	-0.27811
277.265	-0.24303
277.483	-0.00299
277.7	-0.0163
277.918	-0.34344
278.136	-0.18052
278.353	-0.6601
278.571	-0.04806
278.789	-0.14642
279.006	0.0614
279.224	0.04433
279.442	0.01122
279.659	-0.2849
279.877	-0.20378
280.094	-0.17033
280.312	-0.54867
280.529	-0.72548
280.747	-0.05859
280.964	-0.27833
281.182	-0.13037
281.399	-0.11417
281.617	0.1102
281.834	-0.17445
282.052	-0.18893
282.269	-0.28697
282.487	-0.27596
282.704	-0.18936
282.921	-0.14198
283.139	0.14256
283.356	-0.40145
283.574	-0.10446
283.791	-0.1788
284.008	-0.10788
284.226	0.14801
284.443	0.0359
284.66	0.05134
284.877	0.11928
285.095	-0.36478
285.312	-0.26472
285.529	-0.12467
285.746	0.00987
285.964	0.01532
286.181	0.07651
286.398	-0.00263
286.615	0.0908
286.832	-0.11092
287.05	-0.28986
287.267	-0.14284
287.484	0.04228
287.701	-0.05906
287.918	-0.13411
288.135	-0.22738
288.352	-0.00916
288.569	-0.19789
288.786	0.04739
289.003	-0.20164
289.22	0.11655
289.437	-0.16572
289.654	0.07305
289.871	0.06625
290.088	-0.03947
290.305	0.17744
290.522	0.11352
290.739	-0.00018
290.956	0.13806
291.173	0.0227
291.39	-0.07643
291.607	-0.11772
291.824	-0.25721
292.04	-0.00365
292.257	-0.05185
292.474	0.09329
292.691	-0.05787
292.908	-0.11582
293.125	-0.04633
293.341	-0.02128
293.558	0.02216
293.775	-0.19332
293.992	0.01461
294.208	-0.03282
294.425	-0.27237
294.642	0.06666
294.858	-0.42162
295.075	-0.05259
295.292	0.0824
295.508	-0.03471
295.725	-0.20924
295.942	-0.20103
296.158	-0.10344
296.375	-0.18522
296.591	-0.09956
296.808	-0.07127
297.024	-0.06704
297.241	-0.16335
297.458	-0.11423
297.674	-0.04405
297.891	0.02206
298.107	-0.15272
298.323	-0.10975
298.54	-0.11573
298.756	-0.11921
298.973	-0.17384
299.189	-0.26254
299.406	-0.27732
299.622	-0.27143
299.838	-0.04402
300.055	-0.01741
300.271	-0.30408
300.487	-0.14458
300.704	-0.13466
300.92	-0.18156
301.136	-0.48472
301.353	-0.15454
301.569	-0.11965
301.785	-0.2154
302.001	-0.40888
302.218	-0.22881
302.434	-0.28426
302.65	-0.2265
302.866	-0.36693
303.083	-0.40272
303.299	-0.41892
303.515	-0.4224
303.731	-0.60689
303.947	-0.52789
304.163	-0.41269
304.379	-0.45903
304.595	-0.4086
304.812	-0.40186
305.028	-0.21419
305.244	-0.33385
305.46	-0.15642
305.676	-0.29311
305.892	-0.49014
306.108	-0.73986
306.324	-0.59563
306.54	-0.31186
306.756	-0.16894
306.972	-0.38737
307.187	-0.78886
307.403	-0.42638
307.619	-0.21114
307.835	-0.42024
308.051	-0.27396
308.267	-0.53375
308.483	-0.72092
308.699	-0.35417
308.914	-0.43331
309.13	-0.53257
309.346	-0.66416
309.562	-0.54785
309.778	-0.52914
309.993	-0.27018
310.209	-0.65102
310.425	-0.46733
310.641	-0.57483
310.856	-0.58609
311.072	-0.36763
311.288	-0.46361
311.503	-0.69144
311.719	-0.47163
311.935	-0.71933
312.15	-0.79434
312.366	-0.61466
312.581	-0.69415
312.797	-0.89648
313.013	-0.80655
313.228	-0.5643
313.444	-0.30787
313.659	-0.62395
313.875	-0.75837
314.09	-0.50602
314.306	-0.48044
314.521	-0.73192
314.737	-0.70681
314.952	-0.48784
315.168	-0.82566
315.383	-0.82909
315.599	-0.57895
315.814	-0.59948
316.029	-0.7019
316.245	-0.71477
316.46	-0.24822
316.675	-0.47797
316.891	-0.59541
317.106	-0.76566
317.321	-0.43058
317.537	-0.69781
317.752	-0.84109
317.967	-0.62669
318.183	-0.48287
318.398	-0.53234
318.613	-0.92658
318.828	-0.61004
319.043	-0.74248
319.259	-1.02534
319.474	-0.72802
319.689	-0.5853
319.904	-0.74138
320.119	-0.74974
320.334	-0.81065
320.549	-0.61219
320.765	-0.66054
320.98	-0.75646
321.195	-0.24521
321.41	-0.81445
321.625	-0.6489
321.84	-0.53085
322.055	-0.69499
322.27	-0.63685
322.485	-0.45862
322.7	-0.9533
322.915	-0.59346
323.13	-1.07591
323.345	-1.10902
323.56	-0.6357
323.775	-0.67453
323.989	-0.7227
324.204	-0.64019
324.419	-0.57829
324.634	-0.96253
324.849	-0.83282
325.064	-0.88946
325.279	-0.84573
325.493	-0.75299
325.708	-0.65929
325.923	-0.76929
326.138	-1.05654
326.352	-0.80359
326.567	-1.16296
326.782	-0.89972
326.997	-1.04133
327.211	-0.9237
327.426	-0.63206
327.641	-1.08155
327.855	-0.79121
328.07	-1.37026
328.285	-1.08932
328.499	-0.59137
328.714	-0.66144
328.928	-0.46755
329.143	-1.01287
329.358	-1.09583
329.572	-0.71415
329.787	-1.05556
330.001	-0.97458
330.216	-0.658
330.43	-1.17115
330.645	-0.91012
330.859	-1.00534
331.074	-0.69269
331.288	-0.8761
331.503	-1.64422
331.717	-0.85381
331.931	-0.89869
332.146	-1.25743
332.36	-1.16325
332.575	-0.80975
332.789	-0.74516
333.003	-1.26184
333.218	-1.16784
333.432	-1.00732
333.646	-1.23894
333.86	-1.51823
334.075	-1.02883
334.289	-1.03857
334.503	-0.67519
334.717	-1.67653
334.932	-0.69096
335.146	-1.0226
335.36	-0.88392
335.574	-1.02641
335.788	-1.02643
336.003	-1.21966
336.217	-1.51635
336.431	-0.90865
336.645	-1.62269
336.859	-1.1811
337.073	-1.53575
337.287	-1.23935
337.501	-0.89974
337.715	-1.36254
337.929	-1.01574
338.143	-1.12213
338.357	-0.9981
338.571	-1.37995
338.785	-1.70449
338.999	-0.78705
339.213	-1.14143
339.427	-1.33376
339.641	-1.17034
339.855	-0.92655
340.069	-1.04624
340.283	-1.16829
340.497	-1.40899
340.711	-1.55467
340.924	-1.59864
341.138	-1.56577
341.352	-1.27378
341.566	-1.03876
341.78	-1.54935
341.993	-1.11887
342.207	-1.55611
342.421	-1.38498
342.635	-1.3289
342.848	-1.3389
343.062	-0.88203
343.276	-1.37969
343.49	-0.95034
343.703	-1.34355
343.917	-1.53534
344.131	-1.30543
344.344	-1.2294
344.558	-1.48111
344.771	-0.95126
344.985	-1.26292
345.199	-1.36875
345.412	-1.40612
345.626	-1.57258
345.839	-1.09394
346.053	-1.24332
346.266	-1.57092
346.48	-1.32731
346.693	-1.41255
346.907	-1.27091
347.12	-1.17227
347.334	-1.20366
347.547	-1.45638
347.76	-1.8211
347.974	-1.37486
348.187	-1.25968
348.401	-1.50113
348.614	-1.10694
348.827	-1.59517
349.041	-1.3373
349.254	-1.30983
349.467	-1.32802
349.681	-1.69294
349.894	-1.26365
350.107	-1.34384
350.32	-1.79466
350.534	-1.41915
350.747	-1.68818
350.96	-1.6439
351.173	-1.42628
351.386	-1.40869
351.6	-1.45357
351.813	-2.09831
352.026	-1.51008
352.239	-1.68663
352.452	-1.32508
352.665	-2.06002
352.878	-1.44579
353.092	-1.73361
353.305	-1.48703
353.518	-1.27704
353.731	-1.14064
353.944	-1.29534
354.157	-1.77589
354.37	-1.88079
354.583	-1.33636
354.796	-1.81105
355.009	-1.55888
355.222	-1.89754
355.435	-1.52902
355.647	-1.69923
355.86	-1.95557
356.073	-1.83481
356.286	-1.64014
356.499	-1.99804
356.712	-2.24261
356.925	-1.76307
357.138	-1.85849
357.35	-1.90158
357.563	-1.95776
357.776	-1.81468
357.989	-2.37415
358.201	-1.85028
358.414	-2.17161
358.627	-2.09676
358.84	-2.01845
359.052	-1.57115
359.265	-2.01161
359.478	-1.52059
359.69	-1.96566
359.903	-2.13755
360.116	-2.08604
360.328	-1.87043
360.541	-1.8455
360.753	-2.35358
360.966	-2.31374
361.179	-2.35296
361.391	-2.1651
361.604	-2.19394
361.816	-2.09434
362.029	-2.50494
362.241	-2.12668
362.454	-2.44742
362.666	-2.14669
362.879	-2.64381
363.091	-2.1386
363.304	-2.35619
363.516	-1.85625
363.728	-2.13791
363.941	-2.19947
364.153	-2.78394
364.366	-2.22372
364.578	-1.89199
364.79	-2.04179
365.003	-2.36353
365.215	-1.9201
365.427	-2.04784
365.639	-1.94009
365.852	-2.17388
366.064	-1.70032
366.276	-2.32774
366.488	-1.96088
366.701	-2.09219
366.913	-1.70397
367.125	-2.13536
367.337	-1.86691
367.549	-1.94705
367.762	-1.74051
367.974	-1.95912
368.186	-2.61364
368.398	-1.93137
368.61	-1.87177
368.822	-2.10226
369.034	-1.62821
369.246	-2.1252
369.458	-2.42784
369.67	-2.02865
369.882	-2.03096
370.094	-1.67896
370.306	-1.76397
370.518	-1.66601
370.73	-2.19919
370.942	-2.34533
371.154	-2.2666
371.366	-2.26855
371.578	-2.37885
371.79	-2.56155
372.002	-2.04297
372.214	-2.51575
372.425	-1.92185
372.637	-2.66386
372.849	-2.4482
373.061	-1.97698
373.273	-2.22031
373.484	-1.99265
373.696	-2.27133
373.908	-1.90641
374.12	-2.08635
374.331	-2.19984
374.543	-1.99344
374.755	-2.1149
374.967	-2.13277
375.178	-2.4359
375.39	-2.09853
375.602	-2.20053
375.813	-1.84448
376.025	-2.27724
376.236	-2.40987
376.448	-2.17428
376.66	-2.4622
376.871	-2.25851
377.083	-2.07474
377.294	-2.91762
377.506	-2.3106
377.717	-2.44175
377.929	-2.13787
378.14	-2.63061
378.352	-2.18552
378.563	-2.6053
378.775	-2.47106
378.986	-1.93178
379.197	-2.47417
379.409	-2.02528
379.62	-2.15041
379.832	-2.31978
380.043	-2.34352
380.254	-2.32175
380.466	-2.15992
380.677	-2.14232
380.888	-2.16579
381.1	-2.48411
381.311	-2.71137
381.522	-2.56283
381.733	-2.37479
381.945	-2.4205
382.156	-2.21906
382.367	-2.48019
382.578	-2.63909
382.789	-2.56992
383.001	-2.04621
383.212	-2.86086
383.423	-2.40021
383.634	-2.28046
383.845	-2.6575
384.056	-2.31979
384.267	-2.52381
384.478	-2.45609
384.69	-2.39288
384.901	-2.40663
385.112	-2.29756
385.323	-2.81106
385.534	-2.38203
385.745	-2.58307
385.956	-2.43994
386.167	-2.40712
386.378	-2.37293
386.588	-2.8003
386.799	-2.21975
387.01	-2.6297
387.221	-2.53543
387.432	-2.55538
387.643	-2.18871
387.854	-2.21762
388.065	-2.42394
388.275	-2.29775
388.486	-2.341
388.697	-2.51954
388.908	-2.33057
389.119	-2.46303
389.329	-2.44481
389.54	-2.2668
389.751	-2.58029
389.962	-2.64633
390.172	-2.11952
390.383	-2.56767
390.594	-2.35065
390.804	-2.41302
391.015	-2.70848
391.226	-2.49947
391.436	-2.7177
391.647	-2.54983
391.858	-2.55727
392.068	-2.49972
392.279	-2.75024
392.489	-2.89236
392.7	-2.47316
392.91	-2.67136
393.121	-2.50362
393.331	-2.49887
393.542	-2.66075
393.752	-2.72544
393.963	-2.72947
394.173	-2.81508
394.384	-2.63358
394.594	-2.50796
394.804	-2.5448
395.015	-2.47469
395.225	-2.76166
395.436	-2.53662
395.646	-2.42909
395.856	-2.76225
396.067	-2.44529
396.277	-2.30396
396.487	-2.41547
396.697	-2.77909
396.908	-2.7356
397.118	-2.10508
397.328	-2.43937
397.538	-2.51029
397.749	-2.40181
397.959	-2.56577
398.169	-2.41891
398.379	-2.20335
398.589	-2.28426
398.8	-2.62977
399.01	-2.62861
399.22	-2.13731
399.43	-2.37822
399.64	-2.59115
399.85	-2.33087
400.06	-2.71129
400.27	-2.545
400.48	-2.24076
400.69	-2.26039
400.9	-2.20857
401.11	-2.30235
401.32	-2.44624
401.53	-2.34763
401.74	-2.36159
401.95	-2.2086
402.16	-2.78172
402.37	-2.37193
402.58	-2.39774
402.79	-2.38734
403	-2.2379
403.209	-2.11274
403.419	-2.48935
403.629	-2.29148
403.839	-2.62465
404.049	-2.45793
404.258	-2.41144
404.468	-2.50567
404.678	-2.48431
404.888	-2.7124
405.097	-2.75637
405.307	-2.33234
405.517	-2.68445
405.727	-2.66962
405.936	-2.37569
406.146	-2.39729
406.356	-2.329
406.565	-2.42478
406.775	-2.32986
406.984	-2.37398
407.194	-2.49173
407.404	-2.32973
407.613	-2.29087
407.823	-2.50509
408.032	-2.35048
408.242	-2.29966
408.451	-2.3276
408.661	-2.46844
408.87	-2.41492
409.08	-2.0811
409.289	-2.22927
409.499	-2.35558
409.708	-2.15366
409.918	-2.12273
410.127	-2.33159
410.336	-2.52469
410.546	-2.37864
410.755	-2.42202
410.964	-2.32426
411.174	-2.21791
411.383	-2.18217
411.592	-2.20839
411.802	-2.29599
412.011	-2.39125
412.22	-2.20594
412.429	-2.38208
412.639	-2.35469
412.848	-2.34461
413.057	-2.28209
413.266	-2.26469
413.475	-2.30034
413.685	-2.21713
413.894	-2.5083
414.103	-1.9864
414.312	-2.14323
414.521	-2.06981
414.73	-2.11989
414.939	-2.3336
415.148	-2.38567
415.357	-2.42524
415.566	-2.3635
415.776	-2.24714
415.985	-2.33093
416.194	-2.3548
416.403	-2.52756
416.611	-2.31222
416.82	-2.50892
417.029	-2.58503
417.238	-2.47607
417.447	-2.52832
417.656	-2.5787
417.865	-2.42417
418.074	-2.64149
418.283	-2.67035
418.492	-2.89027
418.7	-2.76591
418.909	-2.91486
419.118	-2.67466
419.327	-2.68617
419.536	-2.80287
419.744	-3.00971
419.953	-3.11349
420.162	-3.07278
420.371	-3.28538
420.579	-3.62327
420.788	-3.42497
420.997	-3.6577
421.205	-3.45326
421.414	-3.70955
421.623	-3.71739
421.831	-3.54813
422.04	-3.47598
422.249	-3.40769
422.457	-3.40713
422.666	-3.28597
422.874	-3.27985
423.083	-3.274
423.291	-3.37835
423.5	-3.62371
423.708	-3.44939
423.917	-3.65052
424.125	-3.4823
424.334	-3.52305
424.542	-3.51054
424.751	-3.64912
424.959	-3.47032
425.167	-3.50187
425.376	-3.67722
425.584	-3.08838
425.793	-3.18489
426.001	-2.89359
426.209	-3.00891
426.418	-2.91022
426.626	-2.67247
426.834	-2.78689
427.042	-2.63276
427.251	-2.69326
427.459	-2.59383
427.667	-2.62378
427.875	-2.59895
428.084	-2.66163
428.292	-2.58684
428.5	-2.64292
428.708	-2.38054
428.916	-2.612
429.124	-2.57677
429.333	-2.35093
429.541	-2.63397
429.749	-2.41273
429.957	-2.56432
430.165	-2.62903
430.373	-2.27322
430.581	-2.3049
430.789	-2.55553
430.997	-2.89035
431.205	-2.38281
431.413	-2.4091
431.621	-2.57774
431.829	-2.47129
432.037	-2.51295
432.245	-2.58891
432.453	-2.65007
432.661	-2.58878
432.869	-2.56983
433.076	-2.68051
433.284	-2.53038
433.492	-2.78131
433.7	-2.62261
433.908	-2.85204
434.116	-2.67978
434.323	-2.7932
434.531	-2.80505
434.739	-2.82573
434.947	-2.5343
435.154	-2.86332
435.362	-2.73486
435.57	-2.60658
435.778	-2.42337
435.985	-2.59822
436.193	-2.49673
436.401	-2.59607
436.608	-2.62214
436.816	-2.5488
437.023	-2.61288
437.231	-2.70443
437.439	-2.62007
437.646	-2.7088
437.854	-2.64665
438.061	-2.71309
438.269	-2.6859
438.476	-2.59199
438.684	-2.80104
438.891	-2.69456
439.099	-2.85525
439.306	-2.78919
439.514	-2.71964
439.721	-2.83541
439.929	-2.90275
440.136	-2.84721
440.343	-2.88328
440.551	-2.9238
440.758	-3.086
440.965	-2.87467
441.173	-2.83351
441.38	-3.02619
441.587	-2.90892
441.795	-2.95665
442.002	-2.83769
442.209	-2.83815
442.416	-2.86155
442.624	-2.7497
442.831	-2.87734
443.038	-2.88913
443.245	-2.73525
443.452	-2.75352
443.66	-2.65172
443.867	-2.73164
444.074	-2.74623
444.281	-2.70603
444.488	-2.71051
444.695	-2.78167
444.902	-3.01299
445.109	-2.87213
445.316	-3.11135
445.523	-3.08933
445.73	-3.27694
445.937	-3.42146
446.144	-3.41837
446.351	-3.58667
446.558	-3.44879
446.765	-3.65179
446.972	-3.28811
447.179	-3.40184
447.386	-3.3573
447.593	-3.19864
447.8	-3.26736
448.007	-3.14244
448.214	-2.92975
448.42	-3.04482
448.627	-2.91508
448.834	-2.95451
449.041	-2.76644
449.248	-2.85546
449.454	-2.78279
449.661	-2.81473
449.868	-2.72689
450.075	-2.72902
450.281	-2.6848
450.488	-2.68421
450.695	-2.64733
450.901	-2.57899
451.108	-2.69966
451.315	-2.84229
451.521	-2.66822
451.728	-2.84827
451.935	-2.76378
452.141	-2.86328
452.348	-2.71283
452.554	-2.86452
452.761	-2.75162
452.967	-2.84597
453.174	-2.85226
453.38	-2.80903
453.587	-2.75082
453.793	-2.68403
454	-2.66949
454.206	-2.7655
454.413	-2.6142
454.619	-2.7281
454.825	-2.80448
455.032	-2.68475
455.238	-2.78151
455.445	-2.75893
455.651	-2.7385
455.857	-2.7058
456.064	-2.6736
456.27	-2.78364
456.476	-2.73549
456.682	-2.63418
456.889	-2.71929
457.095	-2.71071
457.301	-2.82741
457.507	-2.77764
457.714	-2.97729
457.92	-2.80748
458.126	-2.77058
458.332	-2.84925
458.538	-3.01971
458.744	-2.97495
458.951	-2.7575
459.157	-3.0476
459.363	-3.1354
459.569	-3.32946
459.775	-3.38501
459.981	-3.47044
460.187	-3.44737
460.393	-3.42851
460.599	-3.24397
460.805	-2.97447
461.011	-3.20435
461.217	-3.22371
461.423	-3.20753
461.629	-3.11104
461.835	-2.99439
462.041	-2.94662
462.247	-3.00076
462.453	-2.81427
462.658	-2.72432
462.864	-2.91014
463.07	-2.70148
463.276	-2.85611
463.482	-2.56229
463.688	-2.76507
463.893	-2.5817
464.099	-2.92117
464.305	-2.99379
464.511	-2.75226
464.716	-2.88462
464.922	-2.88757
465.128	-2.77642
465.333	-2.7586
465.539	-3.00052
465.745	-2.84639
465.95	-3.02883
466.156	-2.97771
466.362	-2.92236
466.567	-2.94405
466.773	-2.88541
466.978	-2.87396
467.184	-2.74654
467.389	-2.79254
467.595	-2.59588
467.8	-2.85206
468.006	-2.9342
468.211	-3.02829
468.417	-2.80141
468.622	-2.89959
468.828	-2.57093
469.033	-3.00331
469.239	-2.87137
469.444	-3.03639
469.649	-2.74547
469.855	-3.05667
470.06	-2.88488
470.266	-2.84468
470.471	-2.89036
470.676	-2.82667
470.881	-2.70994
471.087	-3.12221
471.292	-2.9121
471.497	-2.82997
471.703	-2.9432
471.908	-2.6297
472.113	-3.04846
472.318	-2.73768
472.523	-2.7025
472.729	-2.98482
472.934	-3.11524
473.139	-2.96172
473.344	-2.91372
473.549	-3.041
473.754	-3.05247
473.959	-3.04121
474.164	-3.10747
474.369	-3.05976
474.575	-3.14398
474.78	-2.9181
474.985	-2.91671
475.19	-2.78855
475.395	-2.79523
475.6	-2.88966
475.804	-3.26086
476.009	-2.90023
476.214	-2.82889
476.419	-2.74861
476.624	-3.05664
476.829	-3.11813
477.034	-3.0761
477.239	-3.07943
477.444	-3.00442
477.648	-3.16244
477.853	-3.08802
478.058	-3.15149
478.263	-3.0531
478.468	-3.03706
478.672	-3.15881
478.877	-3.22461
479.082	-3.03316
479.287	-3.11151
479.491	-3.07364
479.696	-3.32141
479.901	-3.26248
480.105	-3.21416
480.31	-3.16552
480.515	-3.09921
480.719	-3.27523
480.924	-3.19168
481.128	-3.11959
481.333	-3.17374
481.538	-3.2486
481.742	-3.19956
481.947	-3.42286
482.151	-3.84872
482.356	-4.47865
482.56	-5.02149
482.765	-5.61753
482.969	-6.98894
483.174	-7.81925
483.378	-9.33189
483.582	-10.02354
483.787	-10.609
483.991	-10.96384
484.196	-10.84867
484.4	-10.55486
484.604	-10.29433
484.809	-9.49679
485.013	-8.60203
485.217	-7.69323
485.422	-6.77661
485.626	-5.87182
485.83	-5.67394
486.034	-5.41031
486.239	-5.52926
486.443	-5.89081
486.647	-6.11102
486.851	-6.52661
487.055	-7.17491
487.26	-7.21992
487.464	-7.78251
487.668	-7.67334
487.872	-7.94307
488.076	-7.77896
488.28	-7.1279
488.484	-6.85009
488.688	-6.71072
488.892	-5.94897
489.096	-5.40028
489.3	-5.00762
489.504	-4.67197
489.708	-4.35365
489.912	-4.13688
490.116	-4.06995
490.32	-4.33101
490.524	-4.65397
490.728	-5.00825
490.932	-5.36396
491.136	-5.85821
491.34	-6.02192
491.544	-6.34068
491.748	-6.52969
491.951	-6.32379
492.155	-6.18097
492.359	-5.87323
492.563	-5.23319
492.767	-4.90927
492.97	-4.28815
493.174	-3.89211
493.378	-3.76508
493.582	-3.69551
493.785	-3.57167
493.989	-3.70282
494.193	-3.40646
494.396	-3.33819
494.6	-3.46708
494.804	-3.22587
495.007	-3.14404
495.211	-3.39033
495.414	-3.11328
495.618	-3.32637
495.822	-3.25676
496.025	-3.25063
496.229	-3.45156
496.432	-3.45072
496.636	-3.4362
496.839	-3.4882
497.043	-3.47218
497.246	-3.43099
497.45	-3.40899
497.653	-3.50819
497.856	-3.65302
498.06	-3.51486
498.263	-3.49472
498.467	-3.47273
498.67	-3.31064
498.873	-3.41148
499.077	-3.34829
499.28	-3.66019
499.483	-3.30982
499.686	-3.52893
499.89	-3.40649
500.093	-3.29395
500.296	-3.40858
500.499	-3.40915
500.703	-3.38857
500.906	-3.22306
501.109	-3.4157
501.312	-3.42888
501.515	-3.46365
501.719	-3.46806
501.922	-3.33032
502.125	-3.33391
502.328	-3.26622
502.531	-3.29464
502.734	-3.30085
502.937	-3.29576
503.14	-3.25849
503.343	-3.41593
503.546	-3.31241
503.749	-3.27004
503.952	-3.43534
504.155	-3.30659
504.358	-3.32381
504.561	-3.42432
504.764	-3.40552
504.967	-3.49946
505.17	-3.44116
505.373	-3.34724
505.576	-3.28178
505.778	-3.40454
505.981	-3.41335
506.184	-3.50238
506.387	-3.42904
506.59	-3.39601
506.793	-3.54339
506.995	-3.49399
507.198	-3.41626
507.401	-3.61785
507.604	-3.4911
507.806	-3.34549
508.009	-3.54038
508.212	-3.43975
508.414	-3.42254
508.617	-3.61933
508.82	-3.5694
509.022	-3.58376
509.225	-3.50822
509.427	-3.61628
509.63	-3.60383
509.833	-3.88065
510.035	-3.49407
510.238	-3.61128
510.44	-3.73642
510.643	-3.5862
510.845	-3.60019
511.048	-3.62355
511.25	-3.64537
511.453	-3.55832
511.655	-3.51463
511.858	-3.53233
512.06	-3.74252
512.262	-3.71463
512.465	-3.70432
512.667	-3.89968
512.869	-3.47022
513.072	-3.66706
513.274	-3.63295
513.476	-3.73222
513.679	-3.67837
513.881	-3.65493
514.083	-3.57272
514.286	-3.67851
514.488	-3.40759
514.69	-3.51649
514.892	-3.43962
515.094	-3.72447
515.297	-3.35389
515.499	-3.53277
515.701	-3.44807
515.903	-3.61432
516.105	-3.66818
516.307	-3.49556
516.509	-3.58715
516.711	-3.5022
516.913	-3.502
517.116	-3.50894
517.318	-3.61799
517.52	-3.69628
517.722	-3.76797
517.924	-3.72286
518.126	-3.74888
518.328	-3.85937
518.529	-3.83884
518.731	-3.781
518.933	-3.96021
519.135	-3.84
519.337	-4.0021
519.539	-4.01388
519.741	-3.86988
519.943	-3.92048
520.145	-3.80222
520.346	-3.76954
520.548	-3.91105
520.75	-3.96957
520.952	-3.72226
521.153	-3.85544
521.355	-3.80147
521.557	-3.53514
521.759	-3.68826
521.96	-3.72249
522.162	-3.57286
522.364	-3.51968
522.565	-3.59863
522.767	-3.71884
522.969	-3.6416
523.17	-3.78617
523.372	-3.52047
523.573	-3.66196
523.775	-3.7615
523.977	-3.68323
524.178	-3.64674
524.38	-3.64586
524.581	-3.6785
524.783	-3.76292
524.984	-3.75012
525.186	-3.71239
525.387	-3.79073
525.589	-3.88404
525.79	-3.89667
525.991	-4.0138
526.193	-4.00421
526.394	-4.12771
526.596	-4.06472
526.797	-4.30796
526.998	-4.31632
527.2	-4.68297
527.401	-5.23383
527.602	-5.95473
527.803	-6.79477
528.005	-7.56834
528.206	-8.17954
528.407	-8.89102
528.608	-8.93197
528.81	-9.08331
529.011	-8.80779
529.212	-8.7061
529.413	-8.11337
529.614	-7.56847
529.815	-6.74538
530.017	-6.26189
530.218	-5.25176
530.419	-4.71166
530.62	-4.49323
530.821	-4.19776
531.022	-3.93332
531.223	-4.0756
531.424	-4.16436
531.625	-4.03929
531.826	-3.99774
532.027	-4.22729
532.228	-4.55832
532.429	-4.9195
532.63	-5.24631
532.831	-5.63176
533.032	-5.72856
533.233	-6.03806
533.433	-5.76844
533.634	-5.80248
533.835	-5.62559
534.036	-5.38181
534.237	-4.85217
534.438	-4.60164
534.638	-4.45768
534.839	-4.29962
535.04	-4.20381
535.241	-4.13526
535.441	-3.99211
535.642	-3.90959
535.843	-4.07567
536.043	-3.90139
536.244	-3.99526
536.445	-3.97162
536.645	-4.0535
536.846	-4.21834
537.047	-4.17616
537.247	-4.0043
537.448	-4.10566
537.648	-4.19368
537.849	-4.15532
538.049	-4.30193
538.25	-4.09811
538.451	-4.12775
538.651	-3.86317
538.851	-3.7417
539.052	-4.04926
539.252	-4.12375
539.453	-3.68919
539.653	-4.00159
539.854	-3.90747
540.054	-3.83108
540.254	-4.17259
540.455	-4.82072
540.655	-5.17452
540.855	-5.94647
541.056	-6.37434
541.256	-6.29594
541.456	-6.53388
541.657	-6.57613
541.857	-6.52469
542.057	-6.1988
542.257	-5.70692
542.458	-5.75833
542.658	-5.11954
542.858	-4.94093
543.058	-4.48191
543.258	-4.27504
543.458	-4.04761
543.659	-4.11556
543.859	-4.23808
544.059	-4.16419
544.259	-4.17303
544.459	-4.32536
544.659	-4.10433
544.859	-3.99615
545.059	-4.07939
545.259	-3.88168
545.459	-4.06801
545.659	-4.03729
545.859	-3.77016
546.059	-3.99001
546.259	-3.9814
546.459	-4.02318
546.659	-4.04696
546.859	-4.0333
547.059	-4.12685
547.258	-3.91496
547.458	-4.20701
547.658	-3.92955
547.858	-4.09536
548.058	-4.42631
548.258	-3.84788
548.457	-3.84306
548.657	-3.87825
548.857	-3.7661
549.057	-3.75173
549.256	-3.79159
549.456	-3.52205
549.656	-3.5022
549.855	-3.59606
550.055	-3.43751
550.255	-3.63901
550.454	-3.56964
550.654	-3.35866
550.853	-3.39724
551.053	-3.47528
551.253	-3.51488
551.452	-3.47359
551.652	-3.46528
551.851	-3.60439
552.051	-3.62658
552.25	-3.58341
552.45	-3.54783
552.649	-3.58493
552.849	-3.55793
553.048	-3.5317
553.248	-3.69948
553.447	-3.83569
553.646	-3.74188
553.846	-3.6022
554.045	-3.57711
554.244	-3.33585
554.444	-3.78221
554.643	-3.42774
554.842	-3.4606
555.042	-3.74601
555.241	-3.68649
555.44	-3.14862
555.64	-3.59495
555.839	-3.77772
556.038	-3.45611
556.237	-3.38258
556.436	-3.84648
556.636	-3.3775
556.835	-3.24305
557.034	-3.46956
557.233	-3.34813
557.432	-3.33732
557.631	-3.33162
557.83	-3.52683
558.029	-3.16524
558.228	-3.287
558.427	-3.49794
558.626	-3.38596
558.825	-3.23766
559.024	-3.39792
559.223	-3.56972
559.422	-3.38416
559.621	-3.39487
559.82	-3.20056
560.019	-3.46215
560.218	-3.42067
560.417	-3.27103
560.616	-3.07783
560.815	-3.5995
561.014	-3.59189
561.212	-3.74418
561.411	-3.19169
561.61	-3.22197
561.809	-3.21137
562.008	-3.44605
562.206	-3.35101
562.405	-3.57855
562.604	-3.25632
562.803	-3.32893
563.001	-3.20164
563.2	-3.54864
563.399	-3.1945
563.597	-3.26375
563.796	-3.13749
563.995	-3.59154
564.193	-3.34436
564.392	-3.40929
564.59	-3.3513
564.789	-3.13477
564.988	-3.31194
565.186	-3.38149
565.385	-3.36854
565.583	-3.46751
565.782	-3.34532
565.98	-3.59428
566.179	-3.73792
566.377	-3.63557
566.575	-3.75716
566.774	-3.80222
566.972	-3.66965
567.171	-3.80818
567.369	-3.60935
567.567	-3.61386
567.766	-3.11957
567.964	-3.32076
568.162	-3.33538
568.361	-3.35102
568.559	-3.26078
568.757	-3.68678
568.956	-3.16093
569.154	-3.23039
569.352	-3.14351
569.55	-3.26163
569.748	-3.58644
569.947	-3.28416
570.145	-3.10769
570.343	-3.25266
570.541	-3.18729
570.739	-3.23392
570.937	-3.28876
571.135	-3.66489
571.333	-3.69844
571.532	-3.43458
571.73	-3.44642
571.928	-3.61356
572.126	-3.58023
572.324	-3.32112
572.522	-3.69837
572.72	-3.76523
572.918	-3.5866
573.116	-3.67725
573.313	-3.27127
573.511	-3.91694
573.709	-3.31452
573.907	-3.84837
574.105	-3.25975
574.303	-3.38752
574.501	-3.27118
574.699	-3.50719
574.896	-3.71697
575.094	-3.49216
575.292	-3.49057
575.49	-3.24639
575.688	-3.37021
575.885	-3.59483
576.083	-3.51408
576.281	-3.14688
576.478	-3.35428
576.676	-3.28726
576.874	-2.8733
577.071	-3.14688
577.269	-3.44123
577.467	-3.10143
577.664	-2.91836
577.862	-3.2806
578.059	-2.77973
578.257	-3.31916
578.455	-2.89841
578.652	-3.20588
578.85	-2.93583
579.047	-2.91157
579.245	-3.21149
579.442	-3.06919
579.64	-3.16863
579.837	-3.12278
580.034	-3.47455
580.232	-3.09505
580.429	-3.11375
580.627	-2.69954
580.824	-3.16382
581.021	-2.91993
581.219	-3.20239
581.416	-3.19505
581.613	-2.84646
581.811	-3.07586
582.008	-2.98886
582.205	-3.2967
582.402	-2.88669
582.6	-3.22838
582.797	-3.12225
582.994	-2.67387
583.191	-3.09678
583.388	-2.9367
583.586	-2.79397
583.783	-2.97426
583.98	-2.81758
584.177	-2.87918
584.374	-2.56715
584.571	-2.60441
584.768	-3.07451
584.965	-3.06518
585.162	-2.93243
585.359	-2.77974
585.556	-2.85642
585.753	-2.64445
585.95	-3.20188
586.147	-2.58492
586.344	-2.76866
586.541	-3.17683
586.738	-2.65351
586.935	-2.91058
587.132	-2.9761
587.329	-2.74033
587.526	-2.74411
587.722	-3.28416
587.919	-3.08718
588.116	-2.56156
588.313	-2.89489
588.51	-2.80387
588.706	-2.64394
588.903	-3.06228
589.1	-3.22546
589.297	-2.91914
589.493	-2.73886
589.69	-3.01716
589.887	-2.82461
590.083	-3.30904
590.28	-2.73001
590.477	-3.15949
590.673	-3.38176
590.87	-3.23395
591.067	-2.75511
591.263	-2.77607
591.46	-2.92658
591.656	-2.95133
591.853	-2.76659
592.049	-2.68178
592.246	-2.95893
592.442	-3.18038
592.639	-3.57213
592.835	-2.53763
593.032	-2.75189
593.228	-2.73353
593.425	-3.08473
593.621	-2.87118
593.817	-3.08662
594.014	-2.46046
594.21	-2.65447
594.406	-3.11045
594.603	-2.95957
594.799	-2.94666
594.995	-2.95589
595.192	-3.29961
595.388	-3.05033
595.584	-2.98349
595.78	-2.96718
595.977	-2.803
596.173	-2.88691
596.369	-2.97078
596.565	-2.92618
596.761	-2.84822
596.957	-3.0297
597.154	-3.17261
597.35	-2.85424
597.546	-3.23459
597.742	-3.11539
597.938	-2.80171
598.134	-3.01021
598.33	-3.15062
598.526	-3.17412
598.722	-2.73297
598.918	-2.7926
599.114	-2.64311
599.31	-2.50145
599.506	-2.64376
599.702	-2.82442
599.898	-3.07841
600.094	-2.42854
600.29	-2.78262
600.485	-2.81625
600.681	-2.14763
600.877	-2.84739
601.073	-2.82126
601.269	-2.61489
601.465	-2.47137
601.66	-2.63695
601.856	-2.57327
602.052	-2.57328
602.248	-2.53807
602.443	-3.02328
602.639	-2.83097
602.835	-2.78673
603.03	-2.60534
603.226	-2.79379
603.422	-2.53814
603.617	-2.62013
603.813	-2.76838
604.009	-2.85231
604.204	-3.27886
604.4	-3.10843
604.595	-3.15368
604.791	-3.09593
604.986	-3.27022
605.182	-2.98965
605.377	-3.09204
605.573	-3.28476
605.768	-2.79049
605.964	-3.14206
606.159	-2.84706
606.355	-3.05708
606.55	-2.7237
606.746	-3.43966
606.941	-2.63201
607.136	-3.04241
607.332	-3.32161
607.527	-2.64724
607.722	-2.35556
607.918	-2.69796
608.113	-2.71983
608.308	-3.15848
608.503	-2.71521
608.699	-2.60609
608.894	-2.65197
609.089	-2.75948
609.284	-3.13611
609.479	-2.76906
609.675	-3.13538
609.87	-2.66872
610.065	-3.23457
610.26	-3.26528
610.455	-2.9818
610.65	-3.10617
610.845	-2.76101
611.04	-2.97175
611.235	-2.86052
611.43	-2.66605
611.625	-2.76433
611.82	-3.09219
612.015	-2.91666
612.21	-3.08786
612.405	-2.33068
612.6	-3.11621
612.795	-2.87526
612.99	-3.07523
613.185	-2.26221
613.38	-2.96479
613.575	-2.51291
613.77	-3.53369
613.965	-3.0768
614.159	-2.61062
614.354	-2.64772
614.549	-2.64044
614.744	-2.50822
614.938	-2.64537
615.133	-2.67004
615.328	-2.62248
615.523	-2.54219
615.717	-2.51256
615.912	-2.41733
616.107	-2.69613
616.301	-2.6276
616.496	-2.6596
616.691	-2.45674
616.885	-3.00632
617.08	-3.19701
617.274	-2.3501
617.469	-2.47975
617.664	-2.70435
617.858	-2.59508
618.053	-2.83205
618.247	-2.32665
618.442	-2.41298
618.636	-2.78764
618.831	-2.40871
619.025	-2.38823
619.219	-2.61363
619.414	-2.81276
619.608	-2.25313
619.803	-2.8229
619.997	-2.62206
620.191	-3.02092
620.386	-2.85584
620.58	-3.00235
620.774	-2.61719
620.969	-2.43176
621.163	-2.70177
621.357	-2.63458
621.551	-2.47189
621.746	-2.18534
621.94	-2.15732
622.134	-2.83983
622.328	-2.93274
622.522	-2.38727
622.716	-2.70587
622.911	-2.67067
623.105	-2.82604
623.299	-3.14355
623.493	-3.02118
623.687	-2.60283
623.881	-1.77583
624.075	-2.18246
624.269	-2.9645
624.463	-2.09443
624.657	-2.34707
624.851	-2.48421
625.045	-3.0473
625.239	-3.14752
625.433	-2.67107
625.627	-2.51718
625.821	-2.21088
626.015	-2.9047
626.209	-2.90907
626.403	-2.94881
626.596	-2.9883
626.79	-2.70714
626.984	-2.49004
627.178	-2.68728
627.372	-2.82013
627.565	-2.78268
627.759	-2.97658
627.953	-2.82387
628.147	-2.79668
628.34	-3.08189
628.534	-2.98823
628.728	-2.54108
628.921	-2.77621
629.115	-2.61896
629.309	-2.60533
629.502	-2.33843
629.696	-2.91498
629.89	-2.55685
630.083	-2.87351
630.277	-2.95778
630.47	-2.60147
630.664	-2.748
630.857	-2.61524
631.051	-2.10154
631.244	-2.63378
631.438	-2.4014
631.631	-2.764
631.825	-2.84312
632.018	-2.24351
632.212	-3.01873
632.405	-2.46591
632.598	-2.69018
632.792	-2.27959
632.985	-2.35228
633.178	-2.46646
633.372	-2.95422
633.565	-2.15664
633.758	-2.95567
633.952	-2.49269
634.145	-2.33962
634.338	-2.82755
634.531	-2.52265
634.724	-2.98584
634.918	-2.43913
635.111	-2.26682
635.304	-2.36967
635.497	-2.63859
635.69	-2.73651
635.883	-2.72359
636.077	-2.13948
636.27	-2.53062
636.463	-2.43924
636.656	-2.67967
636.849	-2.55688
637.042	-2.62906
637.235	-2.59784
637.428	-2.45167
637.621	-2.24513
637.814	-2.53056
638.007	-3.09318
638.2	-2.58389
638.393	-2.19027
638.586	-2.61376
638.778	-3.14127
638.971	-2.28568
639.164	-2.44799
639.357	-2.76397
639.55	-2.93595
639.743	-3.01797
639.935	-2.2404
640.128	-2.82962
640.321	-3.32617
640.514	-2.31714
640.707	-2.68156
640.899	-2.60662
641.092	-3.04263
641.285	-3.30856
641.477	-3.08616
641.67	-3.22836
641.863	-2.85654
642.055	-2.25552
642.248	-1.99481
642.441	-2.49502
642.633	-2.48588
642.826	-2.70121
643.018	-3.36714
643.211	-3.07951
643.403	-2.33708
643.596	-2.62782
643.788	-0.96037
643.981	-2.91017
644.173	-2.78347
644.366	-3.27382
644.558	-2.37874
644.751	-2.68002
644.943	-1.76727
645.135	-2.66683
645.328	-2.56445
645.52	-2.31921
645.712	-2.81492
645.905	-3.06407
646.097	-2.35614
646.289	-2.4093
646.482	-3.46996
646.674	-3.26007
646.866	-3.24573
647.058	-2.58246
647.251	-2.16146
647.443	-2.72429
647.635	-3.28399
647.827	-1.9272
648.019	-2.84462
648.211	-2.95114
648.404	-2.59758
648.596	-3.05763
648.788	-2.74985
648.98	-2.44802
649.172	-1.94534
649.364	-2.84085
649.556	-2.22893
649.748	-1.99645
649.94	-2.16774
650.132	-3.12151
650.324	-2.83794
650.516	-2.11543
650.708	-2.72961
650.9	-2.66948
651.092	-2.27741
651.284	-2.37765
651.476	-3.06001
651.667	-2.5116
651.859	-2.5326
652.051	-2.58426
652.243	-2.1246
652.435	-2.64689
652.627	-2.77886
652.818	-2.91894
653.01	-2.0613
653.202	-2.49844
653.394	-2.32423
653.585	-2.72057
653.777	-3.0961
653.969	-2.76029
654.16	-1.84812
654.352	-2.84687
654.544	-2.65146
654.735	-1.57992
654.927	-2.29294
655.118	-2.11365
655.31	-2.76811
655.502	-2.57853
655.693	-2.83604
655.885	-2.56019
656.076	-2.86174
656.268	-2.59983
656.459	-3.65267
656.651	-2.33881
656.842	-2.47976
657.034	-3.3263
657.225	-2.31095
657.416	-2.84125
657.608	-2.6988
657.799	-2.99478
657.99	-2.7334
658.182	-2.81605
658.373	-2.90257
658.564	-2.88393
658.756	-3.1793
658.947	-2.93341
659.138	-2.77788
659.33	-2.64774
659.521	-3.07979
659.712	-2.81781
659.903	-2.71862
660.094	-2.90585
660.286	-3.26689
660.477	-3.08522
660.668	-2.80487
660.859	-2.39837
661.05	-2.76953
661.241	-2.84834
661.432	-2.49868
661.623	-3.04919
661.814	-2.45431
662.006	-2.84535
662.197	-2.84444
662.388	-3.22542
662.579	-2.96805
662.77	-2.63238
662.96	-2.47338
663.151	-3.14515
663.342	-2.2904
663.533	-3.15597
663.724	-3.1051
663.915	-2.88147
664.106	-3.13645
664.297	-2.77171
664.488	-3.27109
664.678	-2.20775
664.869	-2.97734
665.06	-4.16099
665.251	-2.4682
665.442	-2.7463
665.632	-1.93705
665.823	-1.99151
666.014	-2.63302
666.204	-3.03481
666.395	-3.20413
666.586	-3.28963
666.776	-2.08341
666.967	-3.23589
667.158	-2.71658
667.348	-2.65445
667.539	-2.89318
667.729	-3.31424
667.92	-2.14303
668.111	-2.67923
668.301	-2.98388
668.492	-3.09837
668.682	-2.5394
668.873	-3.8757
669.063	-1.94276
669.253	-3.06448
669.444	-3.14508
669.634	-3.49053
669.825	-3.3703
670.015	-3.11169
670.206	-2.72789
670.396	-3.14392
670.586	-2.3584
670.777	-3.30623
670.967	-2.89328
671.157	-2.3781
671.347	-2.83196
671.538	-3.61359
671.728	-2.53882
671.918	-2.86134
672.108	-3.37024
672.299	-2.08468
672.489	-2.20001
672.679	-2.43664
672.869	-2.32129
673.059	-3.45801
673.249	-3.63956
673.44	-3.07839
673.63	-3.06152
673.82	-2.92073
674.01	-2.56194
674.2	-3.40642
674.39	-2.86709
674.58	-2.37383
674.77	-3.25668
674.96	-1.85391
675.15	-3.89018
675.34	-3.83538
675.53	-3.30992
675.72	-2.09451
675.91	-3.26987
676.099	-4.07783
676.289	-3.87067
676.479	-3.34819
676.669	-2.28081
676.859	-2.96064
677.049	-1.45655
677.238	-2.41029
677.428	-4.5264
677.618	-2.48187
677.808	-3.15266
677.997	-2.70475
678.187	-2.66066
678.377	-3.08129
678.567	-1.21028
678.756	-2.15554
678.946	-2.23166
679.136	-2.79486
679.325	-2.97652
679.515	-2.47762
679.704	-2.69088
679.894	-2.74737
680.084	-2.81243
680.273	-3.09306
680.463	-3.80714
680.652	-3.04562
680.842	-2.64559
681.031	-2.84
681.221	-3.05918
681.41	-3.56627
681.6	-3.07692
681.789	-2.8635
681.978	-2.99149
682.168	-3.23122
682.357	-2.21755
682.547	-2.97041
682.736	-2.2826
682.925	-2.01761
683.115	-3.11003
683.304	-3.09633
683.493	-3.29706
683.682	-3.5332
683.872	-3.8399
684.061	-3.24644
684.25	-3.53716
684.439	-3.63421
684.629	-2.95444
684.818	-4.26111
685.007	-2.10306
685.196	-2.75754
685.385	-2.93081
685.574	-2.21321
685.763	-3.81136
685.952	-2.6729
686.142	-2.24936
686.331	-3.744
686.52	-2.25118
686.709	-2.55025
686.898	-3.20963
687.087	-2.77338
687.276	-3.43756
687.465	-2.26517
687.654	-2.86754
687.842	-3.5103
688.031	-2.84566
688.22	-3.38227
688.409	-2.87875
688.598	-3.37692
688.787	-2.74398
688.976	-3.26883
689.165	-3.62414
689.353	-0.77085
689.542	-2.95985
689.731	-2.57914
689.92	-3.3232
690.108	-1.62328
690.297	-2.64085
690.486	-2.77648
690.675	-3.00513
690.863	-3.01864
691.052	-2.88279
691.241	-2.51999
691.429	-2.03009
691.618	-3.64615
691.806	-2.17109
691.995	-3.99198
692.184	-2.90121
692.372	-3.04724
692.561	-2.70885
692.749	-1.73973
692.938	-2.26637
693.126	-3.47531
693.315	-2.89772
693.503	-2.2849
693.692	-3.33417
693.88	-4.0817
694.068	-2.94427
694.257	-3.05932
694.445	-3.0769
694.634	-2.05891
694.822	-3.55016
695.01	-2.88597
695.199	-2.39474
695.387	-4.07625
695.575	-2.56121
695.763	-2.55258
695.952	-2.36325
696.14	-2.25244
696.328	-3.00171
696.516	-2.55442
696.705	-3.16825
696.893	-2.75232
697.081	-2.04173
697.269	-1.62835
697.457	-2.9207
697.645	-2.76176
697.833	-2.90215
698.021	-1.9278
698.21	-2.16825
698.398	-2.81821
698.586	-2.36901
698.774	-3.20682
698.962	-2.59052
699.15	-3.43411
699.338	-2.61576
699.526	-2.92626
699.714	-4.05808
699.901	-3.61315
700.089	-3.75502
700.277	-2.7595
700.465	-3.26416
700.653	-3.01357
700.841	-3.17789
701.029	-2.06188
701.217	-4.93419
701.404	-3.48161
701.592	-2.55673
701.78	-2.15584
701.968	-3.25478
702.155	-2.32951
702.343	-3.41708
702.531	-2.47741
702.718	-1.93051
702.906	-2.91495
703.094	-2.94705
703.281	-1.727
703.469	-3.55498
703.657	-2.81262
703.844	-3.79982
704.032	-3.19539
704.219	-1.34907
704.407	-2.04907
704.595	-2.60488
704.782	-2.72753
704.97	-3.58574
705.157	-3.30909
705.345	-2.5593
705.532	-1.79043
705.719	-3.87221
705.907	-2.99093
706.094	-4.07858
706.282	-3.20965
706.469	-2.49455
706.656	-1.31483
706.844	-2.29242
707.031	-3.79862
707.218	-4.00359
707.406	-3.13031
707.593	-3.0145
707.78	-4.80965
707.968	-2.38084
708.155	-1.58132
708.342	-2.27175
708.529	-1.9778
708.716	-2.63563
708.904	-2.185
709.091	-3.86393
709.278	-2.01956
709.465	-3.67605
709.652	-2.31018
709.839	-3.41314
710.026	-2.62703
710.213	-1.94698
710.4	-1.32966
710.587	-3.1487
710.774	-2.33204
710.961	-1.94216
711.148	-3.27385
711.335	-3.11038
711.522	-2.3437
711.709	-4.16997
711.896	-3.375
712.083	-3.28333
712.27	-1.7173
712.457	-2.25466
712.644	-2.74117
712.831	-1.41165
713.017	-3.30585
713.204	-4.23584
713.391	-2.23581
713.578	-4.2144
713.765	-2.88852
713.951	-2.79941
714.138	-2.38466
714.325	-4.29779
714.512	-2.13828
714.698	-2.68487
714.885	-3.67819
715.072	-1.90862
715.258	-3.73688
715.445	-2.29986
715.631	-3.63471
715.818	-3.4133
716.005	-2.72143
716.191	-1.49341
716.378	-2.78716
716.564	-3.39938
716.751	-1.92199
716.937	-1.24819
717.124	-3.36962
717.31	-4.52907
717.497	-3.4704
717.683	-1.74991
717.869	-4.58957
718.056	-1.6594
718.242	-3.89148
718.429	-1.99293
718.615	-2.27165
718.801	-1.53858
718.988	-0.43713
719.174	-4.1187
719.36	-3.05498
719.547	-2.8069
719.733	-1.72654
719.919	-5.29127
720.105	-0.66749
720.291	-1.32993
720.478	-1.0228
720.664	-3.55756
720.85	-4.16671
721.036	-3.01452
721.222	-5.58747
721.408	-3.37864
721.595	-2.52698
721.781	-4.8956
721.967	-4.25256
722.153	-4.22555
722.339	-2.03959
722.525	0.25296
722.711	-1.14891
722.897	-3.52457
723.083	-0.71312
723.269	-1.37007
723.455	-1.80118
723.641	-8.9894
723.827	-3.62073
724.012	-3.62678
724.198	-4.67046
724.384	-3.94373
724.57	-3.5715
724.756	-2.97861
724.942	-4.73065
725.127	-5.42218
725.313	-1.48163
725.499	-4.3551
725.685	-8.53548
725.87	-4.68446
726.056	-4.63392
726.242	-5.02129
726.428	-2.98735
726.613	-1.21809
726.799	-1.93041
726.985	-1.99932
727.17	-2.85994
727.356	-5.88036
727.541	-3.13513
727.727	-1.97414
727.913	-4.96617
728.098	-0.36556
728.284	-2.76474
728.469	-4.06488
728.655	-3.86646
728.84	-3.56007
729.026	-3.2103
729.211	-5.85854
729.397	-2.5748
729.582	-3.27138
729.767	-4.30991
729.953	-2.39112
730.138	-4.54743
730.323	-2.26446
730.509	-1.41419
730.694	-2.72231
730.879	-4.84029
731.065	-4.2189
731.25	-2.31667
731.435	-3.22992
731.621	-1.74559
731.806	-2.6486
731.991	-2.84878
732.176	-2.89503
732.361	-3.52479
732.547	-4.162
732.732	-3.77429
732.917	-0.74389
733.102	-2.41926
733.287	-3.90182
733.472	-3.41909
733.657	-1.75896
733.842	-3.96419
734.027	-2.48689
734.212	-4.6315
734.397	-2.65358
734.582	-4.23968
734.767	-4.31367
734.952	-5.31399
735.137	-2.06543
735.322	-4.75246
735.507	-4.49024
735.692	-6.30274
735.877	-3.41251
736.062	-3.9617
736.247	-3.79223
736.431	-4.37372
736.616	-4.40495
736.801	-4.00692
736.986	-3.17879
737.171	-5.44997
737.355	1.68864
737.54	-5.55499
737.725	-1.69595
737.909	-5.25216
738.094	-4.97608
738.279	-4.00062
738.463	-3.318
738.648	-5.22802
738.833	-3.23051
739.017	-3.56244
739.202	-3.06515
739.386	-3.81741
739.571	-3.08671
739.756	-3.64772
739.94	-2.53611
740.125	-3.76698
740.309	0.00338
740.494	-3.56067
740.678	-1.11527
740.863	-3.79586
741.047	-4.10609
741.231	-1.4205
741.416	-4.83828
741.6	-3.56926
741.785	-6.06205
741.969	-0.82613
742.153	-4.43206
742.338	-2.48985
742.522	-1.97499
742.706	-5.25513
742.89	-4.96642
743.075	2.19311
743.259	-0.25769
743.443	-8.92362
743.627	-4.08023
743.812	-5.36656
743.996	-2.11117
744.18	-1.33303
744.364	-1.05387
744.548	-3.09243
744.732	-5.48199
744.916	-3.58306
745.1	-2.12126
745.285	-1.30817
745.469	-4.50311
745.653	-7.11921
745.837	-4.98811
746.021	-9.16882
746.205	-2.619
746.389	-6.25272
746.573	-8.5003
746.757	-4.60458
746.94	-6.89791
747.124	-1.40762
747.308	-4.82883
747.492	-2.35275
747.676	-3.30119
747.86	-11.85835
748.044	-3.90324
748.227	-2.21849
748.411	-10.79941
748.595	-3.33431
748.779	-3.90547
748.963	-6.44843
749.146	-3.54405
749.33	-0.72407
749.514	-2.16902
749.697	-4.09926
749.881	-5.63662
750.065	-3.36003
750.248	1.24326
750.432	-2.13389
750.616	-1.99451
750.799	-4.81727
750.983	-5.4723
751.166	-18.63442
751.35	0.13772
751.533	-18.63236
751.717	-3.79468
751.9	3.2476
752.084	-6.2885
752.267	-5.72345
752.451	-4.67003
752.634	-7.43952
752.818	-7.21939
753.001	-6.77925
753.184	-5.20269
753.368	-5.08725
753.551	-2.34884
753.734	-5.86645
753.918	-0.50843
754.101	-3.56103
754.284	-9.56086
754.467	-2.26467
754.651	-6.07659
754.834	-2.09441
755.017	-3.66851
755.2	-6.04412
755.384	-4.31541
755.567	-2.7428
755.75	-9.78485
755.933	-7.48811
756.116	-2.92543
756.299	1.00349
756.482	-4.96561
756.665	-5.7729
756.848	-4.77198
757.032	-2.23241
757.215	-4.97856
757.398	-5.53211
757.581	-1.40965
757.764	7.13832
757.947	-1.06591
758.129	-8.05355
758.312	-3.82006
758.495	-6.79563
758.678	-4.13119
758.861	-4.8698
759.044	-19.57124
759.227	-2.32491
759.41	-4.30392
759.592	-6.07513
759.775	-6.14691
759.958	-11.89935
760.141	-6.73539
760.324	-14.90773
760.506	-5.24
760.689	-6.58221
760.872	-11.00765
761.054	-3.81084
761.237	-3.56451
761.42	-4.79099
761.602	-5.67532
761.785	-8.33689
761.968	-6.76033
762.15	-8.90936
762.333	-1.79097
762.515	-5.01066
762.698	-4.63973
762.88	-4.85688
763.063	-6.76555
763.245	-1.78817
763.428	-4.79216
763.61	-4.86559
763.793	-3.72371
763.975	-5.87618
764.158	-3.79452
764.34	-6.07083
764.522	-4.90503
764.705	-5.94232
764.887	-5.83736
765.069	-4.35135
765.252	-6.8664
765.434	-11.75097
765.616	-4.99455
765.799	-5.39281
765.981	-3.85072
766.163	-7.09419
766.345	-9.80628
766.528	-6.29332
766.71	-3.37945
766.892	-4.62296
767.074	-7.66948
767.256	-6.63645
767.438	-23.21874
767.62	-7.86767
767.802	-6.75724
767.985	-1.61186
768.167	-13.97444
768.349	-2.31205
768.531	-8.27206
768.713	-8.88456
768.895	-14.91465
769.077	-7.70526
769.259	-7.72423
769.441	37.59785
769.623	-12.54331
769.804	-15.58595
769.986	-1.6975
770.168	1.72585
770.35	321.21042
770.532	-25.64172
770.714	-12.36957
770.896	-2.09666
771.077	-4.34133
771.259	-24.87101
771.441	-26.52969
771.623	-124.79864
771.804	-0.22512
771.986	-14.25252
772.168	-15.96477
772.35	-26.41964
772.531	27.86713
772.713	-5.06557
772.894	-456.16224
773.076	-14.65079
773.258	-13.26231
773.439	-52.37495
773.621	69.83545
773.802	-11.14247
773.984	-18.01388
774.166	-15.58639
774.347	-242.14638
774.529	-59.64101
774.71	-2.97412
774.891	-11.11587
775.073	0.95409
775.254	106.83076
775.436	-9.38999
775.617	33.44438
775.799	-13.90772
775.98	142.60705
776.161	58.09833
776.343	73.40947
776.524	-16.97448
776.705	-2.40018
776.886	-7.74531
777.068	-40.49378
777.249	12.44834
777.43	17.15019
777.611	-5.44561
777.793	-21.60121
777.974	44.48285
778.155	-10.20541
778.336	-18.39565
778.517	22.85832
778.698	3.32286
778.879	-5.22728
779.061	-8.44483
779.242	1.56599
779.423	-19.90001
779.604	-6.12993
779.785	-15.97701
779.966	-23.26848
780.147	-23.80014
780.328	-180.92577
780.509	14.14496
780.69	-67.39128
780.871	0.71963
781.051	-0.96806
781.232	-29.47182
781.413	-21.22813
781.594	-6.29792
781.775	-13.57988
781.956	-16.03709
782.137	-6.76466
782.317	-19.01865
782.498	-13.04321
782.679	-11.41386
782.86	-14.15051
783.04	1.86582
783.221	-16.42947
783.402	3.65976
783.583	-18.45626
783.763	-17.25805
783.944	-12.29588
784.124	-4.22343
784.305	51.63169
784.486	-19.75701
784.666	-32.53133
784.847	-14.1111
785.027	11.40409
785.208	-10.40497
785.388	-5.19714
785.569	-15.23586
785.749	-15.06619
785.93	-20.29595
786.11	0.3436
786.291	-8.49874
786.471	-3.32206
786.652	-37.94678
786.832	-6.80462
787.012	-3.63023
787.193	-4.97893
787.373	-9.97459
787.553	-10.14838
787.734	-11.66347
787.914	-5.81094
788.094	-32.49523
788.275	-24.63936
788.455	-4.86725
788.635	-5.15106
788.815	-7.79711
788.995	-6.88613
789.176	-6.00133
789.356	-6.79029
789.536	-2.03159
789.716	-20.04669
789.896	-11.89637
790.076	-12.60861
790.256	-14.88798
790.436	-3.57578
790.616	-11.27751
790.796	-11.51772
790.976	-1.77888
791.156	-5.38861
791.336	-93.22558
791.516	-31.17762
791.696	-15.70654
791.876	-11.681
792.056	-21.58788
792.236	-21.00183
792.416	-56.55653
792.596	-14.79859
792.776	-31.33584
792.956	-14.35755
793.135	103.94495
793.315	-11.50735
793.495	-42.46161
793.675	-23.96336
793.854	-44.38859
794.034	-42.32138
794.214	-7.97756
794.394	-52.44365
794.573	-38.56083
794.753	-4.48603
794.933	-9.06074
795.112	2.45434
795.292	-55.80644
795.472	41.30559
795.651	0.52498
795.831	-10.7728
796.01	-12.96626
796.19	-11.25161
796.369	-13.95906
796.549	-10.94024
796.728	-18.23741
796.908	-7.0872
797.087	-3.01932
797.267	-2.71729
797.446	0.87177
797.626	-20.68773
797.805	-7.8836
797.984	-10.83242
798.164	-3.24154
798.343	-6.29657
798.522	-21.20714
798.702	-10.68219
798.881	-5.17708
799.06	-3.45286
799.239	-6.39442
799.419	-2.49921
799.598	101.26156
799.777	-25.12354
799.956	-257.95033
800.136	-16.16432
800.315	-11.26023
800.494	-27.0946
800.673	-19.31046
800.852	-39.29104
801.031	-63.66571
801.21	-4.21936
801.389	-11.30814
801.568	-4.52238
801.747	24.53805
801.926	-22.538
802.105	60.66893
802.284	-15.20818
802.463	136.12579
802.642	-23.97161
802.821	-15.26915
803	231.88353
803.179	-62.30908
803.358	210.97024
803.537	-5.07142
803.716	-11.86531
803.895	-13.35744
804.073	-31.66576
804.252	3.19272
804.431	-22.42122
804.61	-5.54249
804.789	-151.18176
804.967	-13.31622
805.146	-8.90828
805.325	15.81908
805.503	-54.41088
805.682	-5.56837
805.861	16.06533
806.039	628.84515
806.218	-12.32589
806.397	-30.01891
806.575	-12.49586
806.754	-16.92441
806.932	-8.32767
807.111	19.26058
807.289	-35.36435
807.468	-12.65805
807.646	-232.89111
807.825	-13.25573
808.003	-13.71539
808.182	-61.58364
808.36	-3.95948
808.539	-9.32546
808.717	69.66525
808.895	-3.46159
809.074	-52.1915
809.252	-10.76252
809.43	746.73613
809.609	241.80206
809.787	-4.22614
809.965	-6.54692
810.144	2.56065
810.322	-14.76945
810.5	-8.30518
810.678	16.98057
810.856	17.31175
811.035	122.74041
811.213	-9.70019
811.391	73.19035
811.569	-16.70902
811.747	3.41793
811.925	155.77533
812.103	-2.76062
812.281	-20.65414
812.459	20.7255
812.637	5.19362
812.816	66.46574
812.994	29.45814
813.171	-14.98964
813.349	-140.21427
813.527	22.38948
813.705	53.51351
813.883	19.69786
814.061	-26.09036
814.239	8.20064
814.417	1.20268
814.595	-785.41152
814.773	-6.13159
814.95	0.97275
815.128	1.67051
815.306	-96.18612
815.484	-3.06879
815.662	-8.59607
815.839	-5.89882
816.017	-16.99395
816.195	68.72509
816.372	-28.91288
816.55	-2076.04509
816.728	-8.00976
816.905	-32.66943
817.083	26.03455
817.261	-28.13619
817.438	11.49446
817.616	-6.78309
817.793	-10.14717
817.971	238.67998
818.148	-261.92136
818.326	34.96564
818.503	-126.41746
818.681	19.18419
818.858	-16.11572
819.036	-16.93168
819.213	-8.08729
819.391	-18.54355
819.568	-16.92777
819.745	-16.30121
819.923	-35.55033
820.1	-14.81014
820.277	-4.98079
820.455	-2.85647
820.632	-4.74262
820.809	-1.31235
820.986	-4.50835
821.164	-3.78032
821.341	-5.01219
821.518	-4.83021
821.695	-4.72542
821.872	-4.78371
822.05	-3.73472
822.227	-4.8537
822.404	-4.76705
822.581	-4.84601
822.758	-5.04461
822.935	-6.12382
823.112	-5.91374
823.289	-6.06404
823.466	-6.8806
823.643	-5.9461
823.82	-5.41388
823.997	-7.28939
824.174	-7.73728
824.351	-8.65814
824.528	-10.06998
824.705	-8.40625
824.882	-8.99777
825.059	-16.38697
825.236	-8.75783
825.412	-12.60279
825.589	-7.45991
825.766	-8.27057
825.943	-12.92994
826.12	-9.6243
826.296	-5.96931
826.473	-8.24864
826.65	-7.0231
826.827	-8.67471
827.003	-5.9181
827.18	-6.46256
827.357	-7.55829
827.533	-7.0465
827.71	-5.19096
827.887	-8.20693
828.063	-6.89915
828.24	-6.67238
828.416	-6.54045
828.593	-9.04886
828.769	-11.82697
828.946	-21.00828
829.122	-15.37607
829.299	-12.61078
829.475	-11.90258
829.652	-18.58727
829.828	60.75205
830.005	-14.22279
830.181	-86.38452
830.357	-10.13867
830.534	-739.80342
830.71	-49.33558
830.886	-105.40265
831.063	-60.01611
831.239	41.99696
831.415	-1.95763
831.592	30.51922
831.768	-27.91245
831.944	-8.9416
832.12	64.63472
832.296	58.10116
832.473	0.81112
832.649	-23.93344
832.825	-16.30056
833.001	-3.52158
833.177	-19.62448
833.353	-12.15825
833.529	-5.05108
833.705	-8.57331
833.881	-5.84684
834.058	-8.94389
834.234	-6.99744
834.41	-5.92805
834.586	-5.04047
834.761	-6.05395
834.937	-5.90017
835.113	-7.40791
835.289	-8.46544
835.465	-18.01876
835.641	-7.74717
835.817	-9.02614
835.993	174.75768
836.169	-15.81653
836.344	-29.43446
836.52	-76.05035
836.696	-62.20619
836.872	-27.74667
837.048	8.13851
837.223	-14.40669
837.399	7.64129
837.575	29.84974
837.75	139.90587
837.926	23.65291
838.102	7.45772
838.277	8.15747
838.453	5.58807
838.628	2.68791
838.804	-37.48918
838.98	8.92578
839.155	342.9285
839.331	17.389
839.506	38.68056
839.682	-118.42824
839.857	15.63297
840.033	8.88713
840.208	-34.27651
840.384	-4.29827
840.559	-24.803
840.734	144.51989
840.91	13.26678
841.085	136.35646
841.26	-249.4743
841.436	2.74503
841.611	-139.35148
841.786	29.70615
841.962	-2.64045
842.137	16.23906
842.312	-30.08981
842.487	249.70776
842.663	-10.63282
842.838	137.03634
843.013	2.72023
843.188	-2.37129
843.363	17.23239
843.538	-3.19255
843.714	9.49723
843.889	-0.02371
844.064	2.32282
844.239	14.18243
844.414	-2.9027
844.589	9.60726
844.764	1.59519
844.939	0.88437
845.114	5.91719
845.289	-1.72861
845.464	1.86208
845.639	0.56178
845.814	12.58223
845.989	1.59921
846.163	8.83483
846.338	11.28615
846.513	2.55845
846.688	12.25441
846.863	8.95555
847.038	7.81004
847.212	7.69209
847.387	16.0929
847.562	9.78714
847.737	-0.94179
847.911	20.36737
848.086	12.44351
848.261	7.42108
848.435	3.01372
848.61	-0.00887
848.785	17.87593
848.959	1.78313
849.134	0.40284
849.308	0.32539
849.483	-7.50882
849.658	1.37359
849.832	13.80038
850.007	28.80411
850.181	2.35966
850.356	1.20218
850.53	4.66098
850.705	21.25674
850.879	51.02266
851.053	20.51531
851.228	-25.99997
851.402	-0.94521
851.577	-0.3183
851.751	2.55564
851.925	-0.92937
852.099	-19.76166
852.274	8.85625
852.448	2.14278
852.622	-11.73153
852.797	11.28442
852.971	9.56292
853.145	-1.68384
853.319	-1.82184
853.493	2.06896
853.668	-1.45286
853.842	1.00637
854.016	7.34857
854.19	2.97362
854.364	16.83853
854.538	-0.43668
854.712	9.98757
854.886	-3.23945
855.06	17.12987
855.234	277.23163
855.408	4.51742
855.582	2.60713
855.756	0.3859
855.93	4.06004
856.104	5.06497
856.278	7.4089
856.452	10.68584
856.626	6.28814
856.8	-0.8062
856.973	1.78774
857.147	-0.41372
857.321	-1.41841
857.495	5.48109
857.669	5.0017
857.842	14.19074
858.016	9.46259
858.19	10.72527
858.364	-1.18616
858.537	-1.25622
858.711	12.15712
858.885	20.26642
859.058	-13.79038
859.232	-5.95466
859.405	20.74205
859.579	3.96137
859.753	-0.71306
859.926	-3.81537
860.1	37.89924
860.273	13.30788
860.447	2.59668
860.62	14.3662
860.794	3.85926
860.967	-1.06084
861.141	4.14601
861.314	5.84068
861.487	7.55873
861.661	9.78405
861.834	3.05401
862.008	5.75402
862.181	7.26182
862.354	-5.27878
862.528	2.58957
862.701	-5.62502
862.874	-2.86783
863.047	4.19539
863.221	-0.88757
863.394	42.55091
863.567	3.32996
863.74	-115.89859
863.913	3.41377
864.087	7.75924
864.26	3.95476
864.433	2.32634
864.606	2.20367
864.779	1.57797
864.952	3.03742
865.125	6.88965
865.298	1.99369
865.471	13.13564
865.644	-0.19033
865.817	2.45959
865.99	5.33694
866.163	7.1979
866.336	-6.28414
866.509	3.04042
866.682	13.55544
866.855	3.88266
867.028	28.48725
867.2	1.03208
867.373	-74.01498
867.546	9.4721
867.719	2.09398
867.892	10.34467
868.064	17.3856
868.237	-3.49521
868.41	7.03549
868.583	58.76307
868.755	2.63192
868.928	3.20494
869.101	-4.1481
869.273	-2.1278
869.446	-1.26102
869.619	1.22594
869.791	15.02847
869.964	2.53904
870.136	2.25733
870.309	7.57546
870.481	3.34164
870.654	1.39414
870.826	7.10527
870.999	9.46787
871.171	7.30275
871.344	6.9786
871.516	26.89401
871.689	15.63939
871.861	-7.93397
872.033	19.32332
872.206	11.23734
872.378	8.279
872.55	15.06784
872.723	26.7079
872.895	1.54809
873.067	-0.74962
873.24	3.63595
873.412	0.2504
873.584	12.65742
873.756	-3.18266
873.928	8.65686
874.101	8.25811
874.273	-1.13433
874.445	26.49362
874.617	13.83792
874.789	-5.23346
874.961	17.40598
875.133	-0.19298
875.305	6.04223
875.477	-5.97219
875.649	32.59967
875.821	16.12553
875.993	7.31088
876.165	-1.88476
876.337	0.86729
876.509	6.65766
876.681	-1.7259
876.853	-1.9632
877.025	7.94937
877.197	21.25394
877.369	12.57772
877.541	5.1079
877.712	-467.81126
877.884	5.68877
878.056	3.48401
878.228	-25.71792
878.4	5.51952
878.571	9.21045
878.743	127.4661
878.915	2.9953
879.086	25.24884
879.258	-1.04111
879.43	11.99425
879.601	26.50562
879.773	22.64733
879.945	-10.72453
880.116	-8.05078
880.288	-4.4349
880.459	-1.94669
880.631	-5.0497
880.802	-4.35047
880.974	-4.8198
881.145	-3.67577
881.317	-5.84455
881.488	-4.44802
881.66	-5.20574
881.831	-5.69011
882.002	-3.88162
882.174	-5.73985
882.345	-6.39995
882.517	-5.92138
882.688	-6.08999
882.859	-6.51733
883.03	-11.27451
883.202	-11.60658
883.373	-13.0802
883.544	-15.77424
883.715	-27.35981
883.887	-19.85805
884.058	-21.94496
884.229	-46.58549
884.4	-46.94692
884.571	-233.76028
884.742	-58.44221
884.914	-83.93276
885.085	39.45918
885.256	16.57535
885.427	37.36272
885.598	22.18733
885.769	12.26572
885.94	23.02119
886.111	-234.04132
886.282	19.89929
886.453	32.30949
886.624	64.91671
886.795	15.12755
886.966	11.21038
887.136	6.63753
887.307	43.42191
887.478	9.31885
887.649	8.53724
887.82	8.16462
887.991	21.12986
888.161	10.20447
888.332	16.85585
888.503	29.9049
888.674	2.04618
888.844	2.94747
889.015	1.39563
889.186	23.43507
889.356	3.79738
889.527	34.26742
889.698	1.98676
889.868	24.4202
890.039	4.81362
890.209	4.70941
890.38	6.93018
890.551	5.36857
890.721	10.16739
890.892	1.94956
891.062	5.32697
891.233	10.66001
891.403	-10.23467
891.574	23.80018
891.744	8.83959
891.914	3.19006
892.085	11.03545
892.255	-125.06868
892.425	7.36298
892.596	11.63591
892.766	13.74866
892.936	-5.46595
893.107	2.94343
893.277	16.34081
893.447	73.8045
893.618	-41.03676
893.788	11.89025
893.958	-9.35465
894.128	-41.04119
894.298	-289.74808
894.468	6.38272
894.639	-6.02833
894.809	-12.88229
894.979	-8.63342
895.149	-23.5565
895.319	-20.28735
895.489	-384.63523
895.659	14.07587
895.829	-27.42326
895.999	-90.42716
896.169	-32.4083
896.339	51.58969
896.509	6.26584
896.679	8.93342
896.849	-0.43546
897.019	5.49685
897.189	3.72027
897.358	10.58882
897.528	4.60552
897.698	2.25637
897.868	5.48912
898.038	2.2352
898.208	6.45285
898.377	10.13884
898.547	2.69592
898.717	5.92551
898.886	8.37939
899.056	4.27631
899.226	1.4515
899.395	4.44474
899.565	5.73092
899.735	6.19491
899.904	3.52963
900.074	10.13772
900.244	12.50345
900.413	5.24997
900.583	20.39297
900.752	1.10264
900.922	4.0113
901.091	-52.41526
901.261	5.78206
901.43	0.76003
901.599	2.96606
901.769	-0.31723
901.938	4.32798
902.108	4.42449
902.277	2.3156
902.446	-21.27548
902.616	-10.54846
902.785	11.21328
902.954	1.9259
903.124	6.37157
903.293	-9.44586
903.462	-37.67359
903.631	9.57705
903.801	-42.66451
903.97	-11.66277
904.139	-114.86147
904.308	-10.2169
904.477	-2.99195
904.646	-6.84472
904.816	-25.40064
904.985	-43.84712
905.154	15.41871
